File: resorufin_10x_frittedTiCt_FTOWE_AgAgClref_N2sparge_3_16_CV_C12/resorufin_10x_frittedTiCt_FTOWE_AgAgClref_N2sparge_3_16_CV_C12.txt
EC-Lab ASCII FILE
Nb header lines : 59

Cyclic Voltammetry

Run on channel : 12 (SN 15159)
User :
CE vs. WE compliance from -10 V to 10 V
Electrode connection : standard
Potential control : Ewe
Ewe ctrl range : min = -2.50 V, max = 2.50 V
Safety Limits :
	Do not start on E overload
Acquisition started on : 06/27/2024 22:37:21.030
Technique started on : 06/27/2024 23:45:27.910
Loaded Setting File :  NONE
Saved on :
	File : resorufin_10x_frittedTiCt_FTOWE_AgAgClref_N2sparge_3_16_CV_C12.mpr
	Directory : C:\Users\user\OneDrive - California Institute of Technology\Desktop\Big James\06272024_resorufin_spEC_test\
	Host : 10.8.34.190
Device : VMP3 (SN 1026)
Address : 131.215.231.69
EC-Lab for windows v11.50 (software)
Internet server v11.52 (firmware)
Command interpretor v11.50 (firmware)
Electrode material : Au/Pd
Initial state :
Electrolyte : NaCl (0.2M)
Comments : Fe(CN)63-/Fe(CN)64- 5.10-3 M
Reference electrode : SCE Saturated Calomel Electrode (0.241 V)
Electrode surface area : 0.001 cm²
Characteristic mass : 0.001 g
Equivalent Weight : 0.000 g/eq.
Density : 0.000 g/cm3
Volume (V) : 0.001 cm³
Cycle Definition : Charge/Discharge alternance
Ei (V)              0.000
vs.                 Eoc
dE/dt               6.000
dE/dt unit          mV/s
E1 (V)              1.000
vs.                 Ref
Step percent        50
N                   10
E range min (V)     -2.500
E range max (V)     2.500
I Range             Auto
I Range min         Unset
I Range max         Unset
I Range init        Unset
Bandwidth           5
E2 (V)              -1.000
vs.                 Ref
nc cycles           5
Reverse Scan        1
Ef (V)              0.000
vs.                 Eoc

mode	ox/red	error	control changes	counter inc.	time/s	control/V	Ewe/V	<I>/mA	cycle number	(Q-Qo)/C	I Range	step time/s	P/W
2	1	0	0	0	4086.88	-0.410404	-0.411338	0.00837839	1	0.0000000E+000	13	0.000000000000000E+000	-3.44635e-06
2	1	0	1	0	4119.81	-0.212811	-0.213588	0.030197	1	0.000387521	13	32.3404	-6.4497e-06
2	1	0	1	0	4152.82	-0.014769	-0.0168254	0.0379578	1	0.0014947	13	65.3474	-6.38654e-07
2	1	0	1	0	4185.83	0.183274	0.18238	0.0601443	1	0.00317276	13	98.3546	1.09691e-05
2	1	0	1	0	4218.83	0.381317	0.379716	0.0653065	1	0.0052024	13	131.362	2.47979e-05
2	1	0	1	0	4251.84	0.579359	0.578189	0.073176	1	0.00749761	13	164.369	4.23096e-05
2	1	0	1	0	4284.85	0.777402	0.775714	0.0806514	1	0.0100435	13	197.376	6.25625e-05
2	1	0	1	0	4317.85	0.975445	0.974809	0.0914649	1	0.0128324	13	230.383	8.91609e-05
2	1	0	1	0	4350.71	0.827413	0.825834	0.0759228	1	0.0155618	13	263.241	6.26996e-05
2	1	0	1	0	4383.72	0.629371	0.628067	0.0665942	1	0.0178788	13	296.248	4.18256e-05
2	1	0	1	0	4416.73	0.431328	0.429962	0.0530168	1	0.0198075	13	329.255	2.27952e-05
2	1	0	1	0	4449.73	0.233284	0.230917	0.0372456	1	0.0213486	13	362.262	8.60065e-06
2	1	0	1	0	4482.74	0.0352426	0.0339829	0.0271854	1	0.0224838	13	395.269	9.23839e-07
2	1	0	1	0	4515.75	-0.162801	-0.164473	0.017914	1	0.0231581	13	428.276	-2.94636e-06
2	1	0	1	0	4548.76	-0.360844	-0.362232	-0.00465467	1	0.0233289	13	5.3346	1.68607e-06
2	0	0	1	0	4581.76	-0.558886	-0.56034	-0.0189768	1	0.0229759	13	38.3416	1.06335e-05
2	0	0	1	0	4614.77	-0.756929	-0.758248	-0.0395032	1	0.0220102	13	71.3488	2.99532e-05
2	0	0	1	0	4647.78	-0.954972	-0.956347	-0.0574683	1	0.0203379	13	104.356	5.49596e-05
2	0	0	1	1	4680.55	-0.848449	-0.850151	-0.0454754	1	0.0183772	13	137.13	3.8661e-05
2	0	0	1	1	4713.56	-0.650406	-0.65183	-0.0210567	1	0.0172889	13	170.137	1.37254e-05
2	1	0	1	1	4746.57	-0.452364	-0.453266	0.00579308	1	0.0169821	13	2.5005	-2.6258e-06
2	1	0	1	1	4779.32	-0.25582	-0.257515	0.0244357	2	0.0173788	13	35.2577	-6.29257e-06
2	1	0	1	1	4812.33	-0.0577783	-0.0589737	0.0408573	2	0.0184353	13	68.2647	-2.4095e-06
2	1	0	1	1	4845.34	0.140265	0.138495	0.0530289	2	0.0200923	13	101.272	7.34424e-06
2	1	0	1	1	4878.34	0.338308	0.336637	0.0656409	2	0.0221363	13	134.279	2.20971e-05
2	1	0	1	1	4911.35	0.53635	0.534616	0.069875	2	0.0244083	13	167.286	3.73563e-05
2	1	0	1	1	4944.36	0.734393	0.73323	0.0804782	2	0.0269019	13	200.293	5.9009e-05
2	1	0	1	1	4977.37	0.932436	0.930602	0.0863117	2	0.029628	13	233.3	8.03218e-05
2	1	0	1	1	5010.22	0.870422	0.86923	0.078087	2	0.0324057	13	266.158	6.78756e-05
2	1	0	1	1	5043.23	0.67238	0.671064	0.0655632	2	0.0347697	13	299.165	4.39971e-05
2	1	0	1	1	5076.24	0.474337	0.472075	0.0503616	2	0.0367367	13	332.172	2.37745e-05
2	1	0	1	1	5109.24	0.276294	0.274867	0.0390379	2	0.0383198	13	365.179	1.07302e-05
2	1	0	1	1	5142.25	0.0782517	0.0768643	0.0304495	2	0.0395097	13	398.186	2.34048e-06
2	1	0	1	1	5175.26	-0.119791	-0.121075	0.0211954	2	0.0402628	13	431.194	-2.56623e-06
2	0	0	1	1	5208.27	-0.317834	-0.319702	-0.0053504	2	0.0405245	13	464.201	1.71053e-06
2	0	0	1	1	5241.27	-0.515877	-0.517451	-0.0147436	2	0.0403015	13	31.1734	7.6291e-06
2	0	0	1	1	5274.28	-0.71392	-0.715468	-0.0330638	2	0.0395176	13	64.1806	2.36561e-05
2	0	0	1	1	5307.29	-0.911963	-0.913832	-0.0530306	2	0.0380777	13	97.1877	4.8461e-05
2	0	0	1	0	5340.06	-0.891458	-0.89285	-0.0497919	2	0.0361133	13	129.962	4.44567e-05
2	0	0	1	0	5373.07	-0.693415	-0.694768	-0.0248265	2	0.0348897	13	162.969	1.72487e-05
2	0	0	1	0	5406.08	-0.495373	-0.497053	-0.00334887	2	0.03444	13	195.976	1.66457e-06
2	1	0	1	0	5438.83	-0.29883	-0.300526	0.0158213	3	0.0346867	13	28.2562	-4.75472e-06
2	1	0	1	0	5471.84	-0.100788	-0.102409	0.0347019	3	0.0355712	13	61.2632	-3.55379e-06
2	1	0	1	0	5504.85	0.0972555	0.0955216	0.0520478	3	0.0370594	13	94.2704	4.97169e-06
2	1	0	1	0	5537.85	0.295298	0.2939	0.059042	3	0.0389758	13	127.277	1.73524e-05
2	1	0	1	0	5570.86	0.493341	0.492169	0.07078	3	0.0411439	13	160.285	3.48358e-05
2	1	0	1	0	5603.87	0.691384	0.68999	0.0758982	3	0.0435336	13	193.292	5.23691e-05
2	1	0	1	0	5636.88	0.889426	0.88886	0.0813905	3	0.0461463	13	226.299	7.23447e-05
2	1	0	1	0	5669.73	0.913431	0.912822	0.0782242	3	0.0488986	13	259.156	7.14048e-05
2	1	0	1	0	5702.74	0.715389	0.714	0.0692785	3	0.0512994	13	292.164	4.94648e-05
2	1	0	1	0	5735.75	0.517346	0.515763	0.0545485	3	0.0533004	13	325.171	2.81341e-05
2	1	0	1	0	5768.75	0.319303	0.317778	0.0402971	3	0.0549215	13	358.178	1.28056e-05
2	1	0	1	0	5801.76	0.121261	0.119927	0.0320952	3	0.0561595	13	391.185	3.84908e-06
2	1	0	1	0	5834.77	-0.0767824	-0.0784833	0.0118981	3	0.0569857	13	424.192	-9.33804e-07
2	1	0	1	0	5867.78	-0.274824	-0.276224	0.00167127	3	0.0573322	13	457.199	-4.61644e-07
2	0	0	1	0	5900.78	-0.472868	-0.474258	-0.0105752	3	0.0572241	13	24.0052	5.01537e-06
2	0	0	1	0	5933.79	-0.670911	-0.673439	-0.0276092	3	0.0566008	13	57.0124	1.85931e-05
2	0	0	1	0	5966.8	-0.868953	-0.870867	-0.0510423	3	0.0553645	13	90.0194	4.4451e-05
2	0	0	1	1	5999.57	-0.934467	-0.935916	-0.0552705	3	0.0534708	13	122.794	5.17285e-05
2	0	0	1	1	6032.58	-0.736424	-0.738185	-0.0280151	3	0.0521018	13	155.801	2.06804e-05
2	0	0	1	1	6065.59	-0.538382	-0.539787	-0.00687252	3	0.0515072	13	188.808	3.7097e-06
2	1	0	1	1	6098.34	-0.341839	-0.343636	0.0133847	4	0.0516044	13	21.088	-4.59947e-06
2	1	0	1	1	6131.35	-0.143797	-0.145208	0.0325597	4	0.052331	13	54.095	-4.72791e-06
2	1	0	1	1	6164.36	0.0542463	0.0529456	0.0457115	4	0.0536589	13	87.1022	2.42022e-06
2	1	0	1	1	6197.36	0.252289	0.250985	0.0592634	4	0.0554527	13	120.109	1.48742e-05
2	1	0	1	1	6230.37	0.450331	0.448974	0.0662554	4	0.0575197	13	153.116	2.9747e-05
2	1	0	1	1	6263.38	0.648375	0.646598	0.0719386	4	0.0597958	13	186.124	4.65153e-05
2	1	0	1	1	6296.39	0.846417	0.84493	0.0786149	4	0.0622808	13	219.131	6.6424e-05
2	1	0	1	1	6329.24	0.956441	0.955069	0.0808831	4	0.0649716	13	251.988	7.72489e-05
2	1	0	1	1	6362.25	0.758398	0.756833	0.0675709	4	0.0674129	13	284.995	5.11399e-05
2	1	0	1	1	6395.26	0.560355	0.558786	0.0561162	4	0.0694583	13	318.003	3.13569e-05
2	1	0	1	1	6428.26	0.362313	0.360744	0.0447464	4	0.0711286	13	351.01	1.6142e-05
2	1	0	1	1	6461.27	0.16427	0.162684	0.0321332	4	0.0724232	13	384.017	5.22757e-06
2	1	0	1	1	6494.28	-0.0337731	-0.0349463	0.0261941	4	0.0733231	13	417.024	-9.15387e-07
2	0	0	1	1	6527.29	-0.231815	-0.233793	0.00340436	4	0.0737569	13	450.031	-7.95916e-07
2	0	0	1	1	6560.29	-0.429858	-0.431576	-0.00760928	4	0.0737515	13	16.6703	3.28398e-06
2	0	0	1	1	6593.3	-0.627901	-0.629396	-0.0229444	4	0.0732675	13	49.6774	1.44411e-05
2	0	0	1	1	6626.31	-0.825944	-0.827713	-0.0421542	4	0.0722093	13	82.6845	3.48916e-05
2	0	0	1	0	6659.08	-0.977477	-0.978677	-0.0550982	4	0.070455	13	115.459	5.39233e-05
2	0	0	1	0	6692.09	-0.779434	-0.781051	-0.0324975	4	0.0689298	13	148.466	2.53822e-05
2	0	0	1	0	6725.1	-0.581391	-0.58318	-0.0115961	4	0.0681926	13	181.473	6.76261e-06
2	1	0	1	0	6757.85	-0.384848	-0.38662	0.00292557	5	0.0681441	13	13.753	-1.13108e-06
2	1	0	1	0	6790.86	-0.186806	-0.188631	0.0281434	5	0.0687261	13	46.76	-5.30872e-06
2	1	0	1	0	6823.87	0.0112371	0.00994867	0.0412841	5	0.0699019	13	79.7672	4.10722e-07
2	1	0	1	0	6856.87	0.20928	0.20813	0.0584673	5	0.0715706	13	112.774	1.21688e-05
2	1	0	1	0	6889.88	0.407322	0.405945	0.0610551	5	0.0735141	13	145.781	2.4785e-05
2	1	0	1	0	6922.89	0.605365	0.604024	0.065593	5	0.0755958	13	178.789	3.96197e-05
2	1	0	1	0	6955.9	0.803408	0.801701	0.0719488	5	0.0778605	13	211.796	5.76815e-05
2	1	0	1	0	6988.75	0.999451	0.997875	0.0779584	5	0.0803525	13	244.653	7.77927e-05
2	1	0	1	0	7021.76	0.801407	0.799588	0.0664075	5	0.0827451	13	277.66	5.30987e-05
2	1	0	1	0	7054.77	0.603365	0.601757	0.0553497	5	0.0847502	13	310.667	3.33071e-05
2	1	0	1	0	7087.77	0.405322	0.403643	0.044721	5	0.0863997	13	343.675	1.80513e-05
2	1	0	1	0	7120.78	0.207279	0.205444	0.0303063	5	0.0876983	13	376.682	6.22624e-06
2	1	0	1	0	7153.79	0.00923657	0.00747948	0.0240371	5	0.0886311	13	409.689	1.79785e-07
2	0	0	1	0	7186.8	-0.188806	-0.18984	0.00721039	5	0.0891339	13	442.696	-1.36882e-06
2	0	0	1	0	7219.8	-0.386849	-0.387833	0.00270876	5	0.0892143	13	9.8355	-1.05055e-06
2	0	0	1	0	7252.81	-0.584891	-0.586516	-0.0186599	5	0.0888574	13	42.8425	1.09443e-05
2	0	0	1	0	7285.82	-0.782935	-0.78469	-0.0357597	5	0.0879656	13	75.8497	2.80603e-05
2	0	0	1	0	7318.82	-0.980978	-0.983085	-0.0659146	5	0.086401	13	108.857	6.47996e-05
2	0	0	1	1	7351.6	-0.822443	-0.823947	-0.0370209	5	0.084726	13	141.631	3.05032e-05
2	0	0	1	1	7384.61	-0.624401	-0.626057	-0.0157361	5	0.0838451	13	174.638	9.85169e-06
2	1	0	1	1	7417.61	-0.426357	-0.427755	0.00728707	5	0.0836548	13	7.0016	-3.11708e-06
2	1	0	1	1	7450.37	-0.229815	-0.231849	0.0230799	6	0.0840979	13	39.7586	-5.35105e-06
2	1	0	1	1	7483.38	-0.0317722	-0.0331831	0.0361401	6	0.0851226	13	72.7658	-1.19924e-06
2	1	0	1	1	7516.38	0.16627	0.164747	0.0506942	6	0.086642	13	105.773	8.35171e-06
2	1	0	1	1	7549.39	0.364313	0.362993	0.0523516	6	0.0883782	13	138.78	1.90033e-05
2	1	0	1	1	7582.4	0.562356	0.561063	0.0529445	6	0.0900794	13	171.787	2.97052e-05
2	1	0	1	1	7615.41	0.760399	0.75876	0.0587846	6	0.09191	13	204.794	4.46034e-05
2	1	0	1	1	7648.41	0.958441	0.956675	0.0668427	6	0.0939822	13	237.801	6.39467e-05
2	1	0	1	1	7681.27	0.844416	0.842717	0.059821	6	0.0961049	13	270.659	5.04121e-05
2	1	0	1	1	7714.28	0.646374	0.643898	0.0470972	6	0.0979175	13	303.666	3.03258e-05
2	1	0	1	1	7747.28	0.448331	0.446791	0.040989	6	0.0994262	13	336.673	1.83135e-05
2	1	0	1	1	7780.29	0.250288	0.248788	0.0350346	6	0.100633	13	369.68	8.71619e-06
2	1	0	1	1	7813.3	0.0522462	0.0509472	0.0222885	6	0.101526	13	402.687	1.13553e-06
2	1	0	1	1	7846.31	-0.145797	-0.147205	0.00691286	6	0.102056	13	435.695	-1.01761e-06
2	0	0	1	1	7879.31	-0.34384	-0.344497	-0.000377142	6	0.102194	13	3.1674	1.29924e-07
2	0	0	1	1	7912.32	-0.541882	-0.543292	-0.0136575	6	0.101957	13	36.1744	7.42003e-06
2	0	0	1	1	7945.33	-0.739925	-0.741436	-0.0304436	6	0.101237	13	69.1816	2.2572e-05
2	0	0	1	1	7978.33	-0.937969	-0.939299	-0.0481321	6	0.0998982	13	102.189	4.52104e-05
2	0	0	1	0	8011.11	-0.865452	-0.866738	-0.0364772	6	0.0981575	13	134.963	3.16162e-05
2	0	0	1	0	8044.12	-0.66741	-0.668893	-0.022639	6	0.09715	13	167.97	1.51431e-05
2	0	0	1	0	8077.12	-0.469367	-0.470825	0.000746609	6	0.0968245	13	0.000000000000000E+000	-3.51523e-07
2	1	0	1	0	8086.92	-0.410504	-0.412235	-0.00230298	6	0.0968537	13	9.6302	9.49369e-07