File: resorufin_10x_frittedTiCt_FTOWE_AgAgClref_N2sparge_3_16_CV_C12/resorufin_10x_frittedTiCt_FTOWE_AgAgClref_N2sparge_3_04_CV_C12.txt
EC-Lab ASCII FILE
Nb header lines : 59

Cyclic Voltammetry

Run on channel : 12 (SN 15159)
User :
CE vs. WE compliance from -10 V to 10 V
Electrode connection : standard
Potential control : Ewe
Ewe ctrl range : min = -2.50 V, max = 2.50 V
Safety Limits :
	Do not start on E overload
Acquisition started on : 06/27/2024 22:37:21.030
Technique started on : 06/27/2024 22:38:43.186
Loaded Setting File :  NONE
Saved on :
	File : resorufin_10x_frittedTiCt_FTOWE_AgAgClref_N2sparge_3_04_CV_C12.mpr
	Directory : C:\Users\user\OneDrive - California Institute of Technology\Desktop\Big James\06272024_resorufin_spEC_test\
	Host : 10.8.34.190
Device : VMP3 (SN 1026)
Address : 131.215.231.69
EC-Lab for windows v11.50 (software)
Internet server v11.52 (firmware)
Command interpretor v11.50 (firmware)
Electrode material : Au/Pd
Initial state :
Electrolyte : NaCl (0.2M)
Comments : Fe(CN)63-/Fe(CN)64- 5.10-3 M
Reference electrode : SCE Saturated Calomel Electrode (0.241 V)
Electrode surface area : 0.001 cm²
Characteristic mass : 0.001 g
Equivalent Weight : 0.000 g/eq.
Density : 0.000 g/cm3
Volume (V) : 0.001 cm³
Cycle Definition : Charge/Discharge alternance
Ei (V)              0.000
vs.                 Eoc
dE/dt               1000.000
dE/dt unit          mV/s
E1 (V)              1.000
vs.                 Ref
Step percent        50
N                   10
E range min (V)     -2.500
E range max (V)     2.500
I Range             Auto
I Range min         Unset
I Range max         Unset
I Range init        Unset
Bandwidth           5
E2 (V)              -1.000
vs.                 Ref
nc cycles           5
Reverse Scan        1
Ef (V)              0.000
vs.                 Eoc

mode	ox/red	error	control changes	counter inc.	time/s	control/V	Ewe/V	<I>/mA	cycle number	(Q-Qo)/C	I Range	step time/s	P/W
2	1	0	0	0	82.1564	-0.366795	-0.366054	0.00714182	1	0.0000000E+000	14	0.000000000000000E+000	-2.61429e-06
2	1	0	1	0	82.4115	-0.11174	-0.113299	0.129237	1	1.90198e-05	12	0.235	-1.46425e-05
2	1	0	1	0	82.6075	0.0843027	0.082809	0.144841	1	4.79408e-05	12	0.431	1.19942e-05
2	1	0	1	0	82.8035	0.280345	0.278807	0.170572	1	7.87077e-05	12	0.627	4.75566e-05
2	1	0	1	0	82.9995	0.476287	0.474817	0.210266	1	0.000115476	12	0.823	9.98381e-05
2	1	0	1	0	83.1955	0.67233	0.670964	0.237474	1	0.000159381	12	1.019	0.000159337
2	1	0	1	0	83.3915	0.868272	0.866802	0.277726	1	0.000210517	12	1.215	0.000240733
2	1	0	1	0	83.5805	0.942688	0.941196	0.269214	1	0.000265221	12	1.404	0.000253383
2	1	0	1	0	83.7765	0.746746	0.745241	0.224437	1	0.000313724	12	1.6	0.00016726
2	1	0	1	0	83.9725	0.550703	0.549328	0.177098	1	0.000353173	12	1.796	9.7285e-05
2	1	0	1	0	84.1685	0.354661	0.353174	0.132263	1	0.000383764	12	1.992	4.67119e-05
2	1	0	1	0	84.3645	0.158719	0.157171	0.089859	1	0.000405513	12	2.188	1.41232e-05
2	1	0	1	0	84.5605	-0.0373235	-0.0388673	0.00720648	1	0.000415826	12	2.384	-2.80097e-07
2	0	0	1	0	84.7565	-0.233266	-0.234781	-0.0946655	1	0.000405663	12	0.182	2.22257e-05
2	0	0	1	0	84.9525	-0.429308	-0.430895	-0.0867091	1	0.00038773	12	0.378	3.73625e-05
2	0	0	1	0	85.1485	-0.62525	-0.626814	-0.097087	1	0.000369704	12	0.574	6.08555e-05
2	0	0	1	0	85.3445	-0.821293	-0.822723	-0.142183	1	0.000345971	12	0.77	0.000116977
2	0	0	1	1	85.5349	-0.988729	-0.990273	-0.140075	1	0.000315093	12	0.9604	0.000138712
2	0	0	1	1	85.7309	-0.792687	-0.79424	-0.0740029	1	0.000295063	12	1.1564	5.8776e-05
2	0	0	1	1	85.9269	-0.596744	-0.598279	-0.0312244	1	0.000284495	12	1.3524	1.86809e-05
2	1	0	1	1	86.1229	-0.400702	-0.402238	0.0190424	1	0.000283317	12	0.058	-7.65957e-06
2	1	0	1	1	86.3159	-0.20766	-0.209251	0.107134	2	0.000295166	12	0.251	-2.24179e-05
2	1	0	1	1	86.5119	-0.011718	-0.0131485	0.144801	2	0.000321552	12	0.447	-1.90391e-06
2	1	0	1	1	86.7079	0.184324	0.182775	0.152517	2	0.000351686	12	0.643	2.78763e-05
2	1	0	1	1	86.9039	0.380267	0.378815	0.193937	2	0.000384804	12	0.839	7.34663e-05
2	1	0	1	1	87.0999	0.576309	0.574805	0.222883	2	0.00042472	12	1.035	0.000128114
2	1	0	1	1	87.2959	0.772351	0.770807	0.253843	2	0.000471731	12	1.231	0.000195664
2	1	0	1	1	87.4919	0.968293	0.966881	0.295361	2	0.000526037	12	1.427	0.000285579
2	1	0	1	1	87.6809	0.842666	0.841261	0.24671	2	0.000577094	12	1.616	0.000207548
2	1	0	1	1	87.8769	0.646724	0.645247	0.197582	2	0.000620342	12	1.812	0.000127489
2	1	0	1	1	88.0729	0.450682	0.449193	0.148647	2	0.000654754	12	2.008	6.67711e-05
2	1	0	1	1	88.2689	0.254739	0.253244	0.109146	2	0.000680463	12	2.204	2.76407e-05
2	1	0	1	1	88.4649	0.0586972	0.0571464	0.0589341	2	0.000696748	12	2.4	3.36787e-06
2	0	0	1	1	88.6609	-0.137245	-0.138708	-0.065958	2	0.000696709	12	0.086	9.14892e-06
2	0	0	1	1	88.8569	-0.333287	-0.334857	-0.104702	2	0.000678336	12	0.282	3.50603e-05
2	0	0	1	1	89.0529	-0.52933	-0.530999	-0.0787842	2	0.000660795	12	0.478	4.18343e-05
2	0	0	1	1	89.2489	-0.725272	-0.726758	-0.116646	2	0.00064043	12	0.674	8.47736e-05
2	0	0	1	1	89.4449	-0.921314	-0.922859	-0.178509	2	0.000612298	12	0.87	0.000164739
2	0	0	1	0	89.6353	-0.888707	-0.890328	-0.100713	2	0.000584944	12	1.0604	8.96675e-05
2	0	0	1	0	89.8313	-0.692665	-0.694201	-0.0480278	2	0.000569811	12	1.2564	3.33409e-05
2	0	0	1	0	90.0273	-0.496723	-0.498204	-0.0108129	2	0.000563475	12	1.4524	5.38704e-06
2	1	0	1	0	90.2203	-0.303681	-0.305246	0.0755043	3	0.000568015	12	0.139	-2.30474e-05
2	1	0	1	0	90.4163	-0.107739	-0.109327	0.14212	3	0.00058771	12	0.335	-1.55375e-05
2	1	0	1	0	90.6123	0.0883036	0.0867073	0.140672	3	0.000617447	12	0.531	1.21973e-05
2	1	0	1	0	90.8083	0.284346	0.282821	0.16622	3	0.000647928	12	0.727	4.70104e-05
2	1	0	1	0	91.0043	0.480288	0.478872	0.202886	3	0.000684064	12	0.923	9.71563e-05
2	1	0	1	0	91.2003	0.67633	0.67488	0.236651	3	0.00072719	12	1.119	0.000159711
2	1	0	1	0	91.3963	0.872273	0.870793	0.278153	3	0.000777437	12	1.315	0.000242214
2	1	0	1	0	91.5853	0.938687	0.937153	0.268745	3	0.00083108	12	1.504	0.000251855
2	1	0	1	0	91.7813	0.742745	0.7413	0.221622	3	0.000878405	12	1.7	0.000164288
2	1	0	1	0	91.9773	0.546702	0.545295	0.166428	3	0.00091676	12	1.896	9.07524e-05
2	1	0	1	0	92.1733	0.35066	0.349132	0.127131	3	0.000946414	12	2.092	4.43855e-05
2	1	0	1	0	92.3693	0.154718	0.153268	0.0924082	3	0.00096732	12	2.288	1.41632e-05
2	1	0	1	0	92.5653	-0.0413244	-0.0428898	0.00477795	3	0.000976702	12	0.000000000000000E+000	-2.04925e-07
2	0	0	1	0	92.7613	-0.237267	-0.238824	-0.119322	3	0.000964714	12	0.188	2.8497e-05
2	0	0	1	0	92.9573	-0.433309	-0.43485	-0.092812	3	0.000945337	12	0.384	4.03592e-05
2	0	0	1	0	93.1533	-0.629251	-0.630697	-0.095042	3	0.000927336	12	0.58	5.99427e-05
2	0	0	1	0	93.3493	-0.825294	-0.826803	-0.14165	3	0.000903084	12	0.776	0.000117116
2	0	0	1	1	93.5397	-0.984728	-0.986355	-0.14311	3	0.000871945	12	0.9664	0.000141157
2	0	0	1	1	93.7357	-0.788686	-0.790254	-0.0649585	3	0.000851855	12	1.1624	5.13337e-05
2	0	0	1	1	93.9317	-0.592744	-0.594249	-0.0292979	3	0.000841042	12	1.3584	1.74103e-05
2	1	0	1	1	94.1277	-0.396701	-0.398272	0.00989046	3	0.000839554	12	0.048	-3.93909e-06
2	1	0	1	1	94.3207	-0.203659	-0.205098	0.105246	4	0.000851433	12	0.241	-2.15858e-05
2	1	0	1	1	94.5167	-0.00771709	-0.00925757	0.155555	4	0.000877853	12	0.437	-1.44006e-06
2	1	0	1	1	94.7127	0.188325	0.186806	0.156479	4	0.000907625	12	0.633	2.92312e-05
2	1	0	1	1	94.9087	0.384267	0.382756	0.183671	4	0.000940318	12	0.829	7.03013e-05
2	1	0	1	1	95.1047	0.58031	0.578784	0.214028	4	0.000979728	12	1.025	0.000123876
2	1	0	1	1	95.3007	0.776352	0.774825	0.255569	4	0.00102616	12	1.221	0.000198022
2	1	0	1	1	95.4967	0.972294	0.97086	0.296876	4	0.00107984	12	1.417	0.000288225
2	1	0	1	1	95.6857	0.838665	0.837251	0.243323	4	0.00112996	12	1.606	0.000203723
2	1	0	1	1	95.8817	0.642723	0.64122	0.194856	4	0.00117237	12	1.802	0.000124945
2	1	0	1	1	96.0777	0.446681	0.445183	0.145254	4	0.00120599	12	1.998	6.46646e-05
2	1	0	1	1	96.2737	0.250739	0.249195	0.105589	4	0.00123103	12	2.194	2.63122e-05
2	1	0	1	1	96.4697	0.0546964	0.0533202	0.0529251	4	0.00124672	12	2.39	2.82197e-06
2	0	0	1	1	96.6657	-0.141246	-0.142752	-0.0676485	4	0.00124572	12	0.094	9.65695e-06
2	0	0	1	1	96.8617	-0.337288	-0.338964	-0.105455	4	0.00122644	12	0.29	3.57453e-05
2	0	0	1	1	97.0577	-0.533331	-0.534829	-0.0887135	4	0.0012086	12	0.486	4.74466e-05
2	0	0	1	1	97.2537	-0.729273	-0.730755	-0.129721	4	0.00118792	12	0.682	9.47941e-05
2	0	0	1	1	97.4497	-0.925315	-0.926897	-0.168479	4	0.00115939	12	0.878	0.000156162
2	0	0	1	0	97.6401	-0.884706	-0.88633	-0.101758	4	0.00113218	12	1.0684	9.01911e-05
2	0	0	1	0	97.8361	-0.688664	-0.6901	-0.0537287	4	0.00111708	12	1.2644	3.70781e-05
2	0	0	1	0	98.0321	-0.492722	-0.494259	-0.00948756	4	0.00111064	12	1.4604	4.68931e-06
2	1	0	1	0	98.2251	-0.29968	-0.301231	0.0593003	5	0.00111516	12	0.145	-1.78631e-05
2	1	0	1	0	98.4211	-0.103738	-0.105307	0.131668	5	0.00113506	12	0.341	-1.38656e-05
2	1	0	1	0	98.6171	0.0923045	0.0906682	0.154493	5	0.00116465	12	0.537	1.40076e-05
2	1	0	1	0	98.8131	0.288347	0.286842	0.16941	5	0.00119481	12	0.733	4.85938e-05
2	1	0	1	0	99.0091	0.484289	0.482879	0.192539	5	0.00123061	12	0.929	9.2973e-05
2	1	0	1	0	99.2051	0.680331	0.678759	0.234361	5	0.00127334	12	1.125	0.000159074
2	1	0	1	0	99.4011	0.876273	0.874917	0.279782	5	0.00132317	12	1.321	0.000244786
2	1	0	1	0	99.5901	0.934686	0.933229	0.263299	5	0.00137616	12	1.51	0.000245718
2	1	0	1	0	99.7861	0.738744	0.737306	0.211304	5	0.00142271	12	1.706	0.000155796
2	1	0	1	0	99.9821	0.542702	0.541152	0.168809	5	0.00146038	12	1.902	9.13513e-05
2	1	0	1	0	100.178	0.346659	0.345183	0.130242	5	0.00148941	12	2.098	4.49573e-05
2	1	0	1	0	100.374	0.150717	0.149228	0.0803858	5	0.00150979	12	2.294	1.19958e-05
2	1	0	1	0	100.57	-0.0453252	-0.0468624	-0.00754622	5	0.00151857	12	0.006	3.53634e-07
2	0	0	1	0	100.766	-0.241268	-0.242827	-0.105957	5	0.00150573	12	0.194	2.57293e-05
2	0	0	1	0	100.962	-0.43731	-0.438895	-0.084569	5	0.00148598	12	0.39	3.71169e-05
2	0	0	1	0	101.158	-0.633252	-0.634754	-0.106783	5	0.0014678	12	0.586	6.77812e-05
2	0	0	1	0	101.354	-0.829295	-0.830879	-0.152909	5	0.0014433	12	0.782	0.000127049
2	0	0	1	1	101.544	-0.980727	-0.982361	-0.133359	5	0.00141208	12	0.9724	0.000131007
2	0	0	1	1	101.74	-0.784685	-0.786232	-0.0754981	5	0.00139219	12	1.1684	5.9359e-05
2	0	0	1	1	101.936	-0.588743	-0.590245	-0.0389678	5	0.00138146	12	1.3644	2.30006e-05
2	1	0	1	1	102.132	-0.3927	-0.394282	0.0226211	5	0.00137999	12	0.054	-8.91912e-06
2	1	0	1	1	102.325	-0.199659	-0.201095	0.0895866	6	0.001392	12	0.247	-1.80154e-05
2	1	0	1	1	102.521	-0.00371623	-0.00533167	0.150788	6	0.00141858	12	0.443	-8.03952e-07
2	1	0	1	1	102.717	0.192326	0.190866	0.161362	6	0.00144811	12	0.639	3.07984e-05
2	1	0	1	1	102.913	0.388268	0.386746	0.183241	6	0.00148055	12	0.835	7.08677e-05
2	1	0	1	1	103.109	0.584311	0.582748	0.212997	6	0.00151967	12	1.031	0.000124123
2	1	0	1	1	103.305	0.780353	0.778841	0.252703	6	0.00156578	12	1.227	0.000196815
2	1	0	1	1	103.501	0.976295	0.974915	0.294214	6	0.00161911	12	1.423	0.000286833
2	1	0	1	1	103.69	0.834665	0.833254	0.235344	6	0.00166848	12	1.612	0.000196101
2	1	0	1	1	103.886	0.638722	0.637253	0.186509	6	0.00171023	12	1.808	0.000118854
2	1	0	1	1	104.082	0.44268	0.441194	0.147228	6	0.0017433	12	2.004	6.49563e-05
2	1	0	1	1	104.278	0.246738	0.245244	0.108146	6	0.00176781	12	2.2	2.65222e-05
2	1	0	1	1	104.474	0.0506955	0.049303	0.0448427	6	0.001783	12	2.396	2.21088e-06
2	0	0	1	1	104.67	-0.145247	-0.146826	-0.0790375	6	0.00178133	12	0.1	1.16048e-05
2	0	0	1	1	104.866	-0.341289	-0.343058	-0.0930911	6	0.00176158	12	0.296	3.19356e-05
2	0	0	1	1	105.062	-0.537332	-0.538893	-0.0847006	6	0.00174358	12	0.492	4.56446e-05
2	0	0	1	1	105.258	-0.733274	-0.734732	-0.136678	6	0.00172269	12	0.688	0.000100421
2	0	0	1	1	105.454	-0.929316	-0.930904	-0.172772	6	0.00169397	12	0.884	0.000160834
2	0	0	1	0	105.645	-0.880706	-0.882293	-0.0930264	6	0.00166701	12	1.0744	8.20765e-05
2	0	0	1	0	105.841	-0.684663	-0.686134	-0.0558129	6	0.00165205	12	1.2704	3.82951e-05
2	0	0	1	0	106.037	-0.488721	-0.490315	-0.0156289	6	0.00164574	12	1.4664	7.6631e-06
2	1	0	0	0	106.159	-0.366795	-0.368078	0.00667223	6	0.00164703	12	0.0799	-2.4559e-06