File: resorufin_10x_frittedTiCt_FTOWE_AgAgClref_N2sparge_3_16_CV_C12/resorufin_10x_frittedTiCt_FTOWE_AgAgClref_N2sparge_3_06_CV_C12.txt
EC-Lab ASCII FILE
Nb header lines : 59

Cyclic Voltammetry

Run on channel : 12 (SN 15159)
User :
CE vs. WE compliance from -10 V to 10 V
Electrode connection : standard
Potential control : Ewe
Ewe ctrl range : min = -2.50 V, max = 2.50 V
Safety Limits :
	Do not start on E overload
Acquisition started on : 06/27/2024 22:37:21.030
Technique started on : 06/27/2024 22:39:37.290
Loaded Setting File :  NONE
Saved on :
	File : resorufin_10x_frittedTiCt_FTOWE_AgAgClref_N2sparge_3_06_CV_C12.mpr
	Directory : C:\Users\user\OneDrive - California Institute of Technology\Desktop\Big James\06272024_resorufin_spEC_test\
	Host : 10.8.34.190
Device : VMP3 (SN 1026)
Address : 131.215.231.69
EC-Lab for windows v11.50 (software)
Internet server v11.52 (firmware)
Command interpretor v11.50 (firmware)
Electrode material : Au/Pd
Initial state :
Electrolyte : NaCl (0.2M)
Comments : Fe(CN)63-/Fe(CN)64- 5.10-3 M
Reference electrode : SCE Saturated Calomel Electrode (0.241 V)
Electrode surface area : 0.001 cm²
Characteristic mass : 0.001 g
Equivalent Weight : 0.000 g/eq.
Density : 0.000 g/cm3
Volume (V) : 0.001 cm³
Cycle Definition : Charge/Discharge alternance
Ei (V)              0.000
vs.                 Eoc
dE/dt               200.000
dE/dt unit          mV/s
E1 (V)              1.000
vs.                 Ref
Step percent        50
N                   10
E range min (V)     -2.500
E range max (V)     2.500
I Range             Auto
I Range min         Unset
I Range max         Unset
I Range init        Unset
Bandwidth           5
E2 (V)              -1.000
vs.                 Ref
nc cycles           5
Reverse Scan        1
Ef (V)              0.000
vs.                 Eoc

mode	ox/red	error	control changes	counter inc.	time/s	control/V	Ewe/V	<I>/mA	cycle number	(Q-Qo)/C	I Range	step time/s	P/W
2	1	0	0	0	136.26	-0.361894	-0.363972	0.00468535	1	0.0000000E+000	14	0.000000000000000E+000	-1.70534e-06
2	1	0	1	0	137.273	-0.1593	-0.161041	0.0580081	1	3.31677e-05	13	0.9953	-9.34169e-06
2	1	0	1	0	138.288	0.043744	0.0422508	0.0939412	1	0.000114568	12	2.0105	3.96909e-06
2	1	0	1	0	139.274	0.240786	0.239324	0.133106	1	0.000225984	12	2.9957	3.18554e-05
2	1	0	1	0	140.259	0.437829	0.436358	0.16776	1	0.000372704	12	3.9809	7.32037e-05
2	1	0	1	0	141.244	0.634871	0.633366	0.205731	1	0.000555214	12	4.9661	0.000130303
2	1	0	1	0	142.229	0.831914	0.830584	0.240911	1	0.000773723	12	5.9513	0.000200097
2	1	0	1	0	143.203	0.973344	0.971934	0.260404	1	0.00102418	12	6.925	0.000253095
2	1	0	1	0	144.188	0.776302	0.774787	0.217656	1	0.00125947	12	7.9102	0.000168637
2	1	0	1	0	145.173	0.579259	0.577832	0.177312	1	0.00145267	12	8.8954	0.000102456
2	1	0	1	0	146.158	0.382217	0.380732	0.137014	1	0.00160533	12	9.8806	5.21658e-05
2	1	0	1	0	147.144	0.185175	0.183692	0.0974117	1	0.00171821	12	10.8659	1.78938e-05
2	1	0	1	0	148.129	-0.011868	-0.0133828	0.0491989	1	0.00178974	12	11.8511	-6.58416e-07
2	0	0	1	0	149.114	-0.208911	-0.210432	-0.0172579	1	0.00180515	12	0.2151	3.63163e-06
2	0	0	1	0	150.099	-0.405953	-0.407465	-0.0400593	1	0.00177982	12	1.2003	1.63228e-05
2	0	0	1	0	151.085	-0.602996	-0.604537	-0.071231	1	0.00172948	12	2.1855	4.30618e-05
2	0	0	1	0	152.07	-0.800038	-0.801579	-0.104674	1	0.00164602	12	3.1707	8.39047e-05
2	0	0	1	0	153.055	-0.997081	-0.998647	-0.139376	1	0.00152525	12	4.1559	0.000139188
2	0	0	1	1	154.033	-0.80744	-0.808905	-0.0898242	1	0.00141929	12	5.1336	7.26592e-05
2	0	0	1	1	155.018	-0.610397	-0.612001	-0.0476161	1	0.00135567	12	6.1188	2.91411e-05
2	0	0	1	1	156.003	-0.413355	-0.41496	-0.00147243	1	0.00133279	12	0.005	6.10998e-07
2	1	0	1	1	156.983	-0.217312	-0.218812	0.0401489	2	0.00135494	12	0.8952	-8.78506e-06
2	1	0	1	1	157.968	-0.0202698	-0.0219004	0.0832968	2	0.00142305	12	1.8804	-1.82424e-06
2	1	0	1	1	158.954	0.176773	0.175285	0.120439	2	0.00152334	12	2.8656	2.11112e-05
2	1	0	1	1	159.939	0.373815	0.372347	0.153246	2	0.0016563	12	3.8508	5.70607e-05
2	1	0	1	1	160.924	0.570858	0.569292	0.190309	2	0.00182412	12	4.8361	0.000108342
2	1	0	1	1	161.909	0.7679	0.766458	0.224706	2	0.00202703	12	5.8213	0.000172228
2	1	0	1	1	162.895	0.964943	0.963526	0.2575	2	0.00226551	12	6.8065	0.000248108
2	1	0	1	1	163.868	0.840316	0.83888	0.226224	2	0.00250684	12	7.7802	0.000189775
2	1	0	1	1	164.853	0.643273	0.641864	0.18743	2	0.00270951	12	8.7654	0.000120305
2	1	0	1	1	165.839	0.446231	0.444788	0.145886	2	0.002872	12	9.7506	6.48884e-05
2	1	0	1	1	166.824	0.249188	0.247706	0.108497	2	0.00299521	12	10.7358	2.68753e-05
2	1	0	1	1	167.809	0.0521458	0.0506569	0.0669066	2	0.00307894	12	11.721	3.38928e-06
2	1	0	1	1	168.794	-0.144897	-0.14638	0.00386689	2	0.00311265	12	0.005	-5.66034e-07
2	0	0	1	1	169.779	-0.341939	-0.343469	-0.0343171	2	0.0030939	12	0.9152	1.17869e-05
2	0	0	1	1	170.765	-0.538982	-0.540465	-0.0578281	2	0.00305248	12	1.9004	3.1254e-05
2	0	0	1	1	171.75	-0.736024	-0.73753	-0.0945853	2	0.00298065	12	2.8857	6.97595e-05
2	0	0	1	1	172.735	-0.933067	-0.934688	-0.131298	2	0.00287297	12	3.8709	0.000122722
2	0	0	1	0	173.713	-0.871454	-0.873002	-0.102801	2	0.00275399	12	4.8485	8.97453e-05
2	0	0	1	0	174.698	-0.674411	-0.675917	-0.0587032	2	0.00267732	12	5.8337	3.96784e-05
2	0	0	1	0	175.683	-0.477369	-0.478853	-0.0211135	2	0.00264068	12	6.8189	1.01103e-05
2	1	0	1	0	176.663	-0.281326	-0.282831	0.0255614	3	0.00264667	12	0.5401	-7.22955e-06
2	1	0	1	0	177.649	-0.0842836	-0.0858343	0.0726702	3	0.00269978	12	1.5253	-6.2376e-06
2	1	0	1	0	178.634	0.112759	0.111288	0.100356	3	0.00278927	12	2.5106	1.11684e-05
2	1	0	1	0	179.619	0.309801	0.308406	0.137386	3	0.0029089	12	3.4958	4.23706e-05
2	1	0	1	0	180.604	0.506844	0.505352	0.175963	3	0.0030627	12	4.481	8.89234e-05
2	1	0	1	0	181.589	0.703886	0.702434	0.209398	3	0.003251	12	5.4662	0.000147088
2	1	0	1	0	182.575	0.900929	0.899522	0.246535	3	0.00347423	12	6.4514	0.000221763
2	1	0	1	0	183.548	0.90433	0.902943	0.236043	3	0.0037183	12	7.4251	0.000213134
2	1	0	1	0	184.534	0.707287	0.705876	0.193093	3	0.00393086	12	8.4103	0.0001363
2	1	0	1	0	185.519	0.510245	0.508761	0.154341	3	0.00410348	12	9.3955	7.85228e-05
2	1	0	1	0	186.504	0.313202	0.311683	0.119214	3	0.00423715	12	10.3807	3.71569e-05
2	1	0	1	0	187.489	0.11616	0.114718	0.0784996	3	0.00433228	12	11.3659	9.00531e-06
2	1	0	1	0	188.474	-0.0808829	-0.0824386	0.0279071	3	0.00438371	12	12.3511	-2.30063e-06
2	0	0	1	0	189.46	-0.277925	-0.279433	-0.0181213	3	0.00437671	12	0.5952	5.0637e-06
2	0	0	1	0	190.445	-0.474968	-0.476462	-0.0452196	3	0.00434228	12	1.5804	2.15454e-05
2	0	0	1	0	191.43	-0.672011	-0.673512	-0.0817682	3	0.00428173	12	2.5656	5.50718e-05
2	0	0	1	0	192.415	-0.869053	-0.870586	-0.117537	3	0.00418665	12	3.5508	0.000102326
2	0	0	1	1	193.393	-0.935467	-0.936997	-0.108492	3	0.00406374	12	4.5284	0.000101657
2	0	0	1	1	194.378	-0.738425	-0.73987	-0.071263	3	0.00397437	12	5.5136	5.27254e-05
2	0	0	1	1	195.363	-0.541382	-0.542913	-0.0335764	3	0.003925	12	6.4989	1.8229e-05
2	1	0	1	1	196.344	-0.34534	-0.346845	0.0170935	4	0.0039161	12	0.2051	-5.92881e-06
2	1	0	1	1	197.329	-0.148297	-0.149773	0.0581891	4	0.00395348	12	1.1903	-8.71515e-06
2	1	0	1	1	198.314	0.0487451	0.0472421	0.0927134	4	0.0040321	12	2.1755	4.37998e-06
2	1	0	1	1	199.299	0.245788	0.244354	0.122642	4	0.00413955	12	3.1607	2.99682e-05
2	1	0	1	1	200.284	0.44283	0.441388	0.159178	4	0.0042801	12	4.1459	7.02594e-05
2	1	0	1	1	201.27	0.639873	0.638404	0.197518	4	0.00445459	12	5.1311	0.000126096
2	1	0	1	1	202.255	0.836915	0.835539	0.22994	4	0.0046634	12	6.1163	0.000192124
2	1	0	1	1	203.228	0.968343	0.966895	0.246322	4	0.00490237	12	7.09	0.000238168
2	1	0	1	1	204.214	0.771301	0.76982	0.204221	4	0.00512522	12	8.0752	0.000157213
2	1	0	1	1	205.199	0.574258	0.572735	0.164025	4	0.00530807	12	9.0604	9.39427e-05
2	1	0	1	1	206.184	0.377216	0.375707	0.127803	4	0.00545224	12	10.0457	4.80164e-05
2	1	0	1	1	207.169	0.180173	0.178661	0.0908689	4	0.00555838	12	11.0309	1.62348e-05
2	1	0	1	1	208.155	-0.0168691	-0.0184813	0.0468626	4	0.00562467	12	12.0161	-8.66083e-07
2	0	0	1	1	209.14	-0.213912	-0.215474	-0.00988623	4	0.00563474	12	0.2951	2.13022e-06
2	0	0	1	1	210.125	-0.410954	-0.41238	-0.0368751	4	0.00560629	12	1.2803	1.52066e-05
2	0	0	1	1	211.11	-0.607997	-0.609542	-0.0701525	4	0.00555588	12	2.2655	4.27609e-05
2	0	0	1	1	212.095	-0.805039	-0.806496	-0.10476	4	0.00547298	12	3.2507	8.44884e-05
2	0	0	1	0	213.073	-0.999481	-1.00092	-0.130459	4	0.00535524	12	4.2284	0.000130578
2	0	0	1	0	214.058	-0.802439	-0.803912	-0.0850401	4	0.00525248	12	5.2136	6.83648e-05
2	0	0	1	0	215.043	-0.605396	-0.606989	-0.0458593	4	0.00519084	12	6.1988	2.78361e-05
2	0	0	1	0	216.029	-0.408354	-0.409887	-0.00645884	4	0.00516831	12	0.000000000000000E+000	2.6474e-06
2	1	0	1	0	217.009	-0.212311	-0.213844	0.043147	5	0.00518983	12	0.8902	-9.22674e-06
2	1	0	1	0	217.994	-0.0152687	-0.016894	0.0825748	5	0.00525618	12	1.8754	-1.39502e-06
2	1	0	1	0	218.979	0.181774	0.180292	0.10965	5	0.00535293	12	2.8606	1.9769e-05
2	1	0	1	0	219.964	0.378816	0.37736	0.144913	5	0.00548079	12	3.8458	5.46842e-05
2	1	0	1	0	220.95	0.575859	0.574358	0.183576	5	0.00564209	12	4.8311	0.000105438
2	1	0	1	0	221.935	0.772901	0.771386	0.216955	5	0.00583713	12	5.8163	0.000167356
2	1	0	1	0	222.92	0.969944	0.968511	0.252059	5	0.00606636	12	6.8015	0.000244121
2	1	0	1	0	223.894	0.835315	0.833877	0.214854	5	0.0062966	12	7.7752	0.000179162
2	1	0	1	0	224.879	0.638272	0.636848	0.173512	5	0.00648962	12	8.7604	0.000110501
2	1	0	1	0	225.864	0.44123	0.439795	0.136659	5	0.00664418	12	9.7456	6.01017e-05
2	1	0	1	0	226.849	0.244187	0.24268	0.101929	5	0.00676105	12	10.7308	2.47362e-05
2	1	0	1	0	227.835	0.0471447	0.0457074	0.061897	5	0.00683989	12	11.716	2.82915e-06
2	1	0	1	0	228.82	-0.149898	-0.151511	0.00352715	5	0.00686936	12	0.01	-5.34403e-07
2	0	0	1	0	229.805	-0.34694	-0.348436	-0.0244076	5	0.00684818	12	0.9952	8.50446e-06
2	0	0	1	0	230.79	-0.543983	-0.545482	-0.0562004	5	0.00680645	12	1.9804	3.06563e-05
2	0	0	1	0	231.776	-0.741026	-0.74253	-0.0927112	5	0.00673532	12	2.9657	6.88409e-05
2	0	0	1	0	232.761	-0.938068	-0.939624	-0.13015	5	0.00662946	12	3.9509	0.000122292
2	0	0	1	1	233.738	-0.866453	-0.868005	-0.0923003	5	0.00651474	12	4.9285	8.01171e-05
2	0	0	1	1	234.724	-0.66941	-0.670908	-0.0595126	5	0.0064411	12	5.9137	3.99275e-05
2	0	0	1	1	235.709	-0.472368	-0.47388	-0.0175498	5	0.00640591	12	6.8989	8.31651e-06
2	1	0	1	1	236.689	-0.276325	-0.277752	0.0301815	6	0.00641213	12	0.5551	-8.38297e-06
2	1	0	1	1	237.674	-0.0792826	-0.0808453	0.0704716	6	0.00646448	12	1.5404	-5.69729e-06
2	1	0	1	1	238.659	0.11776	0.116303	0.0975903	6	0.00655152	12	2.5256	1.13501e-05
2	1	0	1	1	239.645	0.314802	0.313317	0.131977	6	0.00666724	12	3.5108	4.13505e-05
2	1	0	1	1	240.63	0.511845	0.510377	0.168718	6	0.00681578	12	4.496	8.611e-05
2	1	0	1	1	241.615	0.708887	0.707388	0.203046	6	0.00699754	12	5.4812	0.000143632
2	1	0	1	1	242.6	0.90593	0.90455	0.238609	6	0.00721292	12	6.4664	0.000215833
2	1	0	1	1	243.574	0.899329	0.897937	0.22674	6	0.00744725	12	7.4401	0.000203598
2	1	0	1	1	244.559	0.702286	0.700844	0.184155	6	0.00765047	12	8.4253	0.000129064
2	1	0	1	1	245.544	0.505243	0.503829	0.147693	6	0.00781535	12	9.4105	7.44123e-05
2	1	0	1	1	246.53	0.308201	0.306799	0.113691	6	0.00794278	12	10.3957	3.48804e-05
2	1	0	1	1	247.515	0.111159	0.109719	0.0739054	6	0.00803309	12	11.3809	8.10884e-06
2	1	0	1	1	248.5	-0.085884	-0.0874701	0.0246764	6	0.0080806	12	12.3662	-2.15845e-06
2	0	0	1	1	249.485	-0.282927	-0.284469	-0.0201776	6	0.00807085	12	0.6602	5.73992e-06
2	0	0	1	1	250.47	-0.479969	-0.48143	-0.0467068	6	0.00803603	12	1.6454	2.2486e-05
2	0	0	1	1	251.456	-0.677012	-0.678544	-0.080529	6	0.00797603	12	2.6306	5.46425e-05
2	0	0	1	1	252.441	-0.874054	-0.87559	-0.116322	6	0.00788249	12	3.6158	0.00010185
2	0	0	1	0	253.418	-0.930466	-0.931978	-0.104757	6	0.0077632	12	4.5934	9.76311e-05
2	0	0	1	0	254.404	-0.733424	-0.734885	-0.0693517	6	0.00767746	12	5.5786	5.09655e-05
2	0	0	1	0	255.389	-0.536381	-0.537934	-0.0314957	6	0.00763019	12	6.5639	1.69426e-05
2	1	0	1	0	256.261	-0.361894	-0.363647	0.00466614	6	0.00762091	12	0.0971	-1.69683e-06