File: resorufin_10x_frittedTiCt_FTOWE_AgAgClref_N2sparge_3_16_CV_C12/resorufin_10x_frittedTiCt_FTOWE_AgAgClref_N2sparge_3_20_CV_C12.txt
EC-Lab ASCII FILE
Nb header lines : 59

Cyclic Voltammetry

Run on channel : 12 (SN 15159)
User :
CE vs. WE compliance from -10 V to 10 V
Electrode connection : standard
Potential control : Ewe
Ewe ctrl range : min = -2.50 V, max = 2.50 V
Safety Limits :
	Do not start on E overload
Acquisition started on : 06/27/2024 22:37:21.030
Technique started on : 06/28/2024 03:06:28.386
Loaded Setting File :  NONE
Saved on :
	File : resorufin_10x_frittedTiCt_FTOWE_AgAgClref_N2sparge_3_20_CV_C12.mpr
	Directory : C:\Users\user\OneDrive - California Institute of Technology\Desktop\Big James\06272024_resorufin_spEC_test\
	Host : 10.8.34.190
Device : VMP3 (SN 1026)
Address : 131.215.231.69
EC-Lab for windows v11.50 (software)
Internet server v11.52 (firmware)
Command interpretor v11.50 (firmware)
Electrode material : Au/Pd
Initial state :
Electrolyte : NaCl (0.2M)
Comments : Fe(CN)63-/Fe(CN)64- 5.10-3 M
Reference electrode : SCE Saturated Calomel Electrode (0.241 V)
Electrode surface area : 0.001 cm²
Characteristic mass : 0.001 g
Equivalent Weight : 0.000 g/eq.
Density : 0.000 g/cm3
Volume (V) : 0.001 cm³
Cycle Definition : Charge/Discharge alternance
Ei (V)              0.000
vs.                 Eoc
dE/dt               1.000
dE/dt unit          mV/s
E1 (V)              1.000
vs.                 Ref
Step percent        50
N                   10
E range min (V)     -2.500
E range max (V)     2.500
I Range             Auto
I Range min         Unset
I Range max         Unset
I Range init        Unset
Bandwidth           5
E2 (V)              -1.000
vs.                 Ref
nc cycles           5
Reverse Scan        1
Ef (V)              0.000
vs.                 Eoc

mode	ox/red	error	control changes	counter inc.	time/s	control/V	Ewe/V	<I>/mA	cycle number	(Q-Qo)/C	I Range	step time/s	P/W
2	0	0	0	0	16147.4	-0.461215	-0.462198	-0.00672281	1	0.0000000E+000	13	0.000000000000000E+000	3.10727e-06
2	1	0	1	0	16346.9	-0.261622	-0.263508	0.00552128	1	0.000646848	13	196.042	-1.4549e-06
2	1	0	1	0	16547	-0.0615788	-0.0632037	0.00628357	1	0.00185248	13	396.086	-3.97145e-07
2	1	0	1	0	16747	0.138464	0.13667	0.00684427	1	0.00317756	13	596.129	9.35407e-07
2	1	0	1	0	16947.1	0.338508	0.337031	0.00782315	1	0.00464092	13	796.172	2.63664e-06
2	0	0	1	0	17147.1	0.538551	0.536292	0.00907636	1	0.00632319	13	996.215	4.86757e-06
2	1	0	1	0	17347.2	0.738594	0.736987	0.0106536	1	0.00829669	13	1196.26	7.85157e-06
2	0	0	1	0	17547.2	0.938637	0.936514	0.0126639	1	0.0106123	13	1396.3	1.18599e-05
2	1	0	1	0	17746.2	0.862421	0.860902	0.0123314	1	0.0131691	13	1595.24	1.06161e-05
2	1	0	1	0	17946.2	0.662377	0.660745	0.0112759	1	0.0155254	13	1795.29	7.45049e-06
2	1	0	0	0	18146.2	0.462334	0.460697	0.0098726	1	0.0176505	13	1995.33	4.54828e-06
2	1	0	1	0	18346.3	0.262291	0.260749	0.00812783	1	0.0194545	13	2195.37	2.11932e-06
2	1	0	1	0	18546.3	0.0622481	0.0606087	0.00603971	1	0.0208759	13	2395.42	3.66059e-07
2	0	0	1	0	18746.4	-0.137795	-0.139733	0.00294218	1	0.0218013	13	2595.46	-4.11119e-07
2	0	0	1	0	18946.4	-0.337838	-0.338404	0.000332812	1	0.0221191	13	2795.5	-1.12625e-07
2	0	0	1	0	19146.5	-0.537882	-0.539613	-0.00549447	1	0.0216902	13	184.04	2.96488e-06
2	0	0	1	0	19346.5	-0.737925	-0.739322	-0.0163853	1	0.0195624	13	384.083	1.2114e-05
2	0	0	1	0	19546.5	-0.937968	-0.93951	-0.0309689	1	0.0149232	13	584.126	2.90956e-05
2	0	0	1	1	19745.2	-0.863452	-0.864905	-0.0244083	1	0.00853773	13	782.77	2.11109e-05
2	0	0	1	1	19945.2	-0.663409	-0.664778	-0.00931399	1	0.00525577	13	982.813	6.19173e-06
2	1	0	1	1	20145.3	-0.463365	-0.464833	0.00193461	1	0.00457416	13	38.0082	-8.99271e-07
2	1	0	1	1	20344.1	-0.264523	-0.265936	0.0083448	2	0.00569884	13	236.851	-2.21918e-06
2	1	0	0	1	20544.2	-0.0644794	-0.0658043	0.00850059	2	0.0074423	13	436.894	-5.59375e-07
2	0	0	0	1	20744.2	0.135564	0.134616	0.00894198	2	0.00918494	13	636.937	1.20373e-06
2	1	0	1	1	20944.2	0.335607	0.334284	0.00970697	2	0.0110431	13	836.981	3.24488e-06
2	1	0	0	1	21144.3	0.53565	0.534498	0.0106803	2	0.0130826	13	1037.02	5.70862e-06
2	1	0	0	1	21344.3	0.735693	0.734107	0.011945	2	0.0153391	13	1237.07	8.76887e-06
2	0	0	1	1	21544.4	0.935736	0.933712	0.0138809	2	0.0179203	13	1437.11	1.29608e-05
2	1	0	1	1	21743.2	0.865421	0.864326	0.0135043	2	0.0207133	13	1635.95	1.16721e-05
2	1	0	1	1	21943.3	0.665378	0.663648	0.0117015	2	0.0232406	13	1836	7.76565e-06
2	1	0	1	1	22143.3	0.465335	0.463726	0.00980864	2	0.0253933	13	2036.04	4.54852e-06
2	1	0	1	1	22343.3	0.265292	0.263497	0.00764359	2	0.0271444	13	2236.08	2.01406e-06
2	1	0	1	1	22543.4	0.0652486	0.0636813	0.00516418	2	0.0284309	13	2436.13	3.28862e-07
2	1	0	1	1	22743.4	-0.134795	-0.135908	0.0017146	2	0.0291412	13	2636.17	-2.33029e-07
2	1	0	1	1	22943.5	-0.334838	-0.33626	7.63739e-06	2	0.0292998	13	0.000000000000000E+000	-2.56815e-09
2	0	0	0	1	23143.5	-0.534881	-0.536393	-0.00447235	2	0.0289448	13	200.043	2.39894e-06
2	0	0	1	1	23343.6	-0.734924	-0.737599	-0.0144702	2	0.0271264	13	400.086	1.06732e-05
2	0	0	1	1	23543.6	-0.934967	-0.936646	-0.0284924	2	0.0229253	13	600.129	2.66873e-05
2	0	0	1	0	23742.2	-0.866453	-0.868091	-0.0230695	2	0.0169359	13	798.773	2.00264e-05
2	0	0	1	0	23942.3	-0.666409	-0.668223	-0.00870395	2	0.0138404	13	998.816	5.81618e-06
2	1	0	1	0	24142.3	-0.466366	-0.467782	0.00209277	2	0.0132406	13	44.0096	-9.78959e-07
2	0	0	1	0	24341.2	-0.267523	-0.269138	0.00768635	3	0.0143093	13	242.853	-2.06869e-06
2	1	0	1	0	24541.2	-0.06748	-0.068911	0.00820727	3	0.0159478	13	442.896	-5.65571e-07
2	1	0	1	0	24741.3	0.132563	0.131728	0.00756241	3	0.0175375	13	642.939	9.9618e-07
2	1	0	1	0	24941.3	0.332606	0.330803	0.00756619	3	0.019039	13	842.982	2.50291e-06
2	1	0	1	0	25141.3	0.532649	0.531444	0.00800408	3	0.0205943	13	1043.03	4.25372e-06
2	1	0	1	0	25341.4	0.732693	0.731417	0.00856641	3	0.0222519	13	1243.07	6.26562e-06
2	1	0	1	0	25541.4	0.932736	0.931673	0.00926562	3	0.02403	13	1443.11	8.63253e-06
2	1	0	1	0	25740.3	0.868422	0.866886	0.00866793	3	0.0258644	13	1641.95	7.51411e-06
2	1	0	1	0	25940.3	0.668379	0.666745	0.00732437	3	0.027463	13	1842	4.88349e-06
2	0	0	1	0	26140.4	0.468336	0.466263	0.00602774	3	0.0287924	13	2042.04	2.81051e-06
2	1	0	1	0	26340.4	0.268292	0.266722	0.00464492	3	0.029858	13	2242.08	1.2389e-06
2	1	0	1	0	26540.5	0.0682493	0.0665589	0.00333802	3	0.0306552	13	2442.13	2.22175e-07
2	1	0	1	0	26740.5	-0.131794	-0.133265	0.00117063	3	0.0311391	13	2642.17	-1.56004e-07
2	0	0	1	0	26940.5	-0.331837	-0.333315	-4.46852e-05	3	0.031236	13	12.0026	1.48943e-08
2	1	0	1	0	27140.6	-0.53188	-0.533225	-0.00334539	3	0.0309631	13	212.046	1.78385e-06
2	0	0	1	0	27340.6	-0.731924	-0.732501	-0.0104923	3	0.0296345	13	412.089	7.68559e-06
2	0	0	1	0	27540.7	-0.931967	-0.933496	-0.0217059	3	0.0265089	13	612.132	2.02624e-05
2	0	0	1	1	27739.3	-0.869453	-0.87098	-0.0181618	3	0.0217911	13	810.776	1.58185e-05
2	0	0	1	1	27939.4	-0.66941	-0.670568	-0.00696852	3	0.0193613	13	1010.82	4.67286e-06
2	1	0	1	1	28139.4	-0.469367	-0.470677	0.000871216	3	0.0188008	13	26.0056	-4.10062e-07
2	1	0	1	1	28338.2	-0.270524	-0.271687	0.00457558	4	0.019388	13	224.849	-1.24313e-06
2	1	0	1	1	28538.3	-0.0704807	-0.0718757	0.00668936	4	0.0205435	13	424.892	-4.80802e-07
2	1	0	1	1	28738.3	0.129563	0.128734	0.00748041	4	0.0219932	13	624.935	9.6298e-07
2	1	0	1	1	28938.4	0.329606	0.328204	0.00776226	4	0.0235098	13	824.978	2.54761e-06
2	1	0	1	1	29138.4	0.529649	0.528256	0.00814274	4	0.0250991	13	1025.02	4.30146e-06
2	1	0	1	1	29338.5	0.729692	0.728845	0.00869003	4	0.0267873	13	1225.06	6.33369e-06
2	1	0	1	1	29538.5	0.929735	0.928318	0.00933176	4	0.0285877	13	1425.11	8.66284e-06
2	1	0	1	1	29737.3	0.871423	0.870299	0.00853581	4	0.0304166	13	1623.95	7.42871e-06
2	1	0	1	1	29937.4	0.671379	0.669886	0.00721851	4	0.0319922	13	1823.99	4.83558e-06
2	1	0	1	1	30137.4	0.471336	0.46915	0.00599008	4	0.0333113	13	2024.04	2.81025e-06
2	1	0	1	1	30337.5	0.271293	0.269936	0.00481048	4	0.0343908	13	2224.08	1.29852e-06
2	1	0	1	1	30537.5	0.07125	0.0700795	0.00351764	4	0.0352246	13	2424.12	2.46514e-07
2	1	0	1	1	30737.6	-0.128793	-0.130261	0.00137145	4	0.035747	13	2624.17	-1.78647e-07
2	1	0	1	1	30937.6	-0.328836	-0.330257	3.84449e-05	4	0.035868	13	2824.21	-1.26967e-08
2	1	0	1	1	31137.6	-0.52888	-0.530379	-0.00295523	4	0.0356334	13	196.042	1.56739e-06
2	0	0	1	1	31337.7	-0.728923	-0.730296	-0.00932898	4	0.0344597	13	396.085	6.81292e-06
2	0	0	1	1	31537.7	-0.928966	-0.930864	-0.0190882	4	0.0316872	13	596.129	1.77685e-05
2	0	0	1	0	31736.4	-0.872454	-0.874328	-0.0164604	4	0.0274736	13	794.772	1.43918e-05
2	0	0	1	0	31936.4	-0.672411	-0.674256	-0.00648102	4	0.0252626	13	994.815	4.36987e-06
2	1	0	1	0	32136.5	-0.472367	-0.473699	0.000557422	4	0.0247149	13	19.0042	-2.6405e-07
2	1	0	1	0	32335.3	-0.273525	-0.275516	0.00398055	5	0.0252049	13	217.847	-1.09671e-06
2	1	0	1	0	32535.3	-0.0734814	-0.0749305	0.00678846	5	0.0262955	13	417.89	-5.08663e-07
2	1	0	1	0	32735.4	0.126562	0.124663	0.00848507	5	0.0278664	13	617.933	1.05778e-06
2	1	0	1	0	32935.4	0.326605	0.324866	0.0093353	5	0.0296607	13	817.977	3.03272e-06
2	1	0	1	0	33135.5	0.526648	0.525072	0.00994324	5	0.0315934	13	1018.02	5.22092e-06
2	1	0	1	0	33335.5	0.726691	0.725348	0.0106918	5	0.0336574	13	1218.06	7.75529e-06
2	1	0	1	0	33535.6	0.926735	0.925429	0.0115298	5	0.0358789	13	1418.11	1.067e-05
2	1	0	1	0	33734.4	0.874423	0.87289	0.0107809	5	0.0381545	13	1616.95	9.41051e-06
2	1	0	1	0	33934.5	0.67438	0.673	0.0094188	5	0.0401726	13	1816.99	6.33885e-06
2	1	0	1	0	34134.5	0.474337	0.47293	0.00811268	5	0.0419209	13	2017.04	3.83673e-06
2	1	0	1	0	34334.5	0.274294	0.27266	0.00672326	5	0.0434028	13	2217.08	1.83317e-06
2	1	0	1	0	34534.6	0.0742507	0.0736022	0.00518606	5	0.0445924	13	2417.12	3.81705e-07
2	0	0	1	0	34734.6	-0.125793	-0.127709	0.00244754	5	0.045388	13	2617.17	-3.12574e-07
2	0	0	1	0	34934.7	-0.325836	-0.32747	0.000415508	5	0.045646	13	2817.21	-1.36066e-07
2	0	0	1	0	35134.7	-0.525879	-0.527432	-0.00311362	5	0.0454125	13	169.036	1.64222e-06
2	0	0	1	0	35334.8	-0.725922	-0.727254	-0.00882919	5	0.0442527	13	369.08	6.42106e-06
2	0	0	1	0	35534.8	-0.925966	-0.92761	-0.017006	5	0.0417328	13	569.123	1.57749e-05
2	0	0	1	1	35733.4	-0.875455	-0.877061	-0.0150334	5	0.0379339	13	767.766	1.31852e-05
2	0	0	0	1	35933.5	-0.675411	-0.676771	-0.00638797	5	0.0358648	13	967.81	4.32319e-06
2	0	0	1	1	36133.5	-0.475368	-0.476041	0.000315598	5	0.0352688	13	8.0018	-1.50238e-07
2	0	0	1	1	36332.4	-0.276525	-0.278338	0.00501279	6	0.0358072	13	206.845	-1.39525e-06
2	1	0	1	1	36532.4	-0.0764819	-0.0782674	0.00972124	6	0.0372839	13	406.888	-7.60856e-07
2	1	0	1	1	36732.5	0.123561	0.121434	0.0135604	6	0.0396626	13	606.931	1.64668e-06
2	1	0	1	1	36932.5	0.323604	0.321942	0.0145847	6	0.0425451	13	806.974	4.69542e-06
2	1	0	1	1	37132.5	0.523648	0.521772	0.013559	6	0.0453556	13	1007.02	7.07472e-06
2	1	0	1	1	37332.6	0.723691	0.722093	0.0134981	6	0.048049	13	1207.06	9.74686e-06
2	1	0	1	1	37532.6	0.923734	0.922295	0.0140392	6	0.0507991	13	1407.1	1.29482e-05
2	1	0	1	1	37731.5	0.877424	0.876019	0.0130561	6	0.0535516	13	1605.95	1.14374e-05
2	1	0	1	1	37931.5	0.677381	0.676082	0.0114871	6	0.0560053	13	1805.99	7.76624e-06
2	1	0	1	1	38131.6	0.477337	0.475875	0.00990157	6	0.0581427	13	2006.03	4.71191e-06
2	1	0	1	1	38331.6	0.277294	0.276309	0.00838162	6	0.0599722	13	2206.08	2.31592e-06
2	1	0	1	1	38531.6	0.0772512	0.0759917	0.00654453	6	0.0614696	13	2406.12	4.9733e-07
2	0	0	1	1	38731.7	-0.122792	-0.124226	0.00339144	6	0.0625061	13	2606.16	-4.21305e-07
2	1	0	1	1	38931.7	-0.322835	-0.324162	0.000513082	6	0.0628716	13	2806.21	-1.66321e-07
2	1	0	1	1	39131.8	-0.522878	-0.524495	-0.00385493	6	0.0625717	13	171.037	2.02189e-06
2	0	0	1	1	39331.8	-0.722922	-0.724616	-0.00974774	6	0.0612308	13	371.08	7.06337e-06
2	0	0	1	1	39531.9	-0.922965	-0.92444	-0.0174929	6	0.0585554	13	571.123	1.61712e-05
2	0	0	1	0	39730.5	-0.878455	-0.88009	-0.0155948	6	0.0546965	13	769.767	1.37249e-05
2	0	0	1	0	39930.5	-0.678412	-0.680171	-0.00690575	6	0.0525075	13	969.81	4.69709e-06
2	1	0	1	0	40130.6	-0.478369	-0.479638	0.00038076	6	0.0518616	13	11.0024	-1.82627e-07
2	0	0	1	0	40147.7	-0.461215	-0.462485	0.00114537	6	0.051874	13	28.1345	-5.29715e-07