File: resorufin_10x_frittedTiCt_FTOWE_AgAgClref_N2sparge_3_16_CV_C12/resorufin_10x_frittedTiCt_FTOWE_AgAgClref_N2sparge_3_18_CV_C12.txt
EC-Lab ASCII FILE
Nb header lines : 59

Cyclic Voltammetry

Run on channel : 12 (SN 15159)
User :
CE vs. WE compliance from -10 V to 10 V
Electrode connection : standard
Potential control : Ewe
Ewe ctrl range : min = -2.50 V, max = 2.50 V
Safety Limits :
	Do not start on E overload
Acquisition started on : 06/27/2024 22:37:21.030
Technique started on : 06/28/2024 00:52:38.084
Loaded Setting File :  NONE
Saved on :
	File : resorufin_10x_frittedTiCt_FTOWE_AgAgClref_N2sparge_3_18_CV_C12.mpr
	Directory : C:\Users\user\OneDrive - California Institute of Technology\Desktop\Big James\06272024_resorufin_spEC_test\
	Host : 10.8.34.190
Device : VMP3 (SN 1026)
Address : 131.215.231.69
EC-Lab for windows v11.50 (software)
Internet server v11.52 (firmware)
Command interpretor v11.50 (firmware)
Electrode material : Au/Pd
Initial state :
Electrolyte : NaCl (0.2M)
Comments : Fe(CN)63-/Fe(CN)64- 5.10-3 M
Reference electrode : SCE Saturated Calomel Electrode (0.241 V)
Electrode surface area : 0.001 cm²
Characteristic mass : 0.001 g
Equivalent Weight : 0.000 g/eq.
Density : 0.000 g/cm3
Volume (V) : 0.001 cm³
Cycle Definition : Charge/Discharge alternance
Ei (V)              0.000
vs.                 Eoc
dE/dt               3.000
dE/dt unit          mV/s
E1 (V)              1.000
vs.                 Ref
Step percent        50
N                   10
E range min (V)     -2.500
E range max (V)     2.500
I Range             Auto
I Range min         Unset
I Range max         Unset
I Range init        Unset
Bandwidth           5
E2 (V)              -1.000
vs.                 Ref
nc cycles           5
Reverse Scan        1
Ef (V)              0.000
vs.                 Eoc

mode	ox/red	error	control changes	counter inc.	time/s	control/V	Ewe/V	<I>/mA	cycle number	(Q-Qo)/C	I Range	step time/s	P/W
2	0	0	1	0	8117.05	-0.43881	-0.440406	-0.0124646	1	0.0000000E+000	13	0.000000000000000E+000	5.48948e-06
2	1	0	1	0	8182.92	-0.241218	-0.242833	0.0174573	1	0.000588267	13	64.6806	-4.2392e-06
2	1	0	1	0	8248.93	-0.0431748	-0.0452729	0.0308904	1	0.00222812	13	130.695	-1.3985e-06
2	1	0	1	0	8314.95	0.154868	0.154022	0.0310368	1	0.00434587	13	196.709	4.78034e-06
2	1	0	1	0	8380.96	0.352911	0.351241	0.0328874	1	0.00642063	13	262.723	1.15514e-05
2	1	0	1	0	8446.98	0.550953	0.549124	0.0385088	1	0.00877269	13	328.738	2.11461e-05
2	1	0	1	0	8512.99	0.748996	0.747724	0.0444226	1	0.0115113	13	394.752	3.32158e-05
2	1	0	1	0	8579	0.947039	0.945941	0.049898	1	0.0146304	13	460.766	4.72006e-05
2	1	0	1	0	8644.52	0.85642	0.854812	0.0452498	1	0.0178246	13	526.281	3.868e-05
2	1	0	1	0	8710.53	0.658377	0.65673	0.0385206	1	0.0205859	13	592.295	2.52976e-05
2	1	0	1	0	8776.55	0.460334	0.4587	0.0321795	1	0.0229184	13	658.309	1.47607e-05
2	1	0	1	0	8842.56	0.262291	0.261475	0.0255945	1	0.0248234	13	724.323	6.69232e-06
2	1	0	1	0	8908.58	0.0642484	0.0626172	0.0182331	1	0.0262703	13	790.338	1.1417e-06
2	0	0	1	0	8974.59	-0.133794	-0.135273	0.00911566	1	0.0271849	13	856.352	-1.2331e-06
2	1	0	1	0	9040.6	-0.331837	-0.333237	0.000418039	1	0.0274947	13	922.366	-1.39306e-07
2	0	0	1	0	9106.62	-0.52988	-0.5311	-0.0110708	1	0.027167	13	63.3471	5.87968e-06
2	0	0	1	0	9172.63	-0.727923	-0.729637	-0.0272769	1	0.0259165	13	129.361	1.99022e-05
2	0	0	1	0	9238.65	-0.925966	-0.927676	-0.0489178	1	0.0234482	13	195.376	4.53799e-05
2	0	0	1	1	9304.19	-0.877455	-0.878627	-0.0408239	1	0.02007	13	260.924	3.5869e-05
2	0	0	1	1	9370.21	-0.679412	-0.681177	-0.0178918	1	0.0181624	13	326.938	1.21875e-05
2	0	0	1	1	9436.22	-0.48137	-0.482646	0.00115557	1	0.0176182	13	3.6674	-5.57729e-07
2	1	0	1	1	9501.64	-0.285127	-0.286659	0.0165689	2	0.0182169	13	69.0816	-4.74962e-06
2	1	0	1	1	9567.65	-0.0870843	-0.0881619	0.029761	2	0.0197773	13	135.096	-2.62379e-06
2	1	0	1	1	9633.67	0.110959	0.109711	0.0327026	2	0.0219461	13	201.11	3.58784e-06
2	1	0	1	1	9699.68	0.309001	0.307638	0.0277606	2	0.0239073	13	267.124	8.5402e-06
2	1	0	1	1	9765.69	0.507044	0.505157	0.0279957	2	0.025736	13	333.139	1.41422e-05
2	1	0	1	1	9831.71	0.705086	0.704008	0.0300856	2	0.0276424	13	399.153	2.11805e-05
2	1	0	1	1	9897.72	0.90313	0.901886	0.0332456	2	0.0297306	13	465.167	2.99838e-05
2	1	0	1	1	9963.2	0.900429	0.898753	0.0319005	2	0.0319333	13	530.648	2.86707e-05
2	1	0	1	1	10029.2	0.702386	0.700997	0.027297	2	0.0338811	13	596.662	1.91351e-05
2	1	0	1	1	10095.2	0.504343	0.503298	0.0228653	2	0.0355389	13	662.677	1.15081e-05
2	1	0	1	1	10161.2	0.306301	0.304639	0.0183841	2	0.0369043	13	728.691	5.60051e-06
2	1	0	1	1	10227.3	0.108258	0.10687	0.0135574	2	0.037957	13	794.705	1.44888e-06
2	1	0	1	1	10293.3	-0.0897848	-0.0914416	0.00747041	2	0.0386597	13	860.719	-6.83106e-07
2	0	0	1	1	10359.3	-0.287828	-0.289708	0.00163448	2	0.038922	13	926.734	-4.73523e-07
2	0	0	1	1	10425.3	-0.48587	-0.487534	-0.00637056	2	0.0387806	13	51.3444	3.10587e-06
2	0	0	1	1	10491.3	-0.683913	-0.685352	-0.0198247	2	0.0379402	13	117.359	1.35869e-05
2	0	0	1	1	10557.3	-0.881956	-0.883146	-0.038518	2	0.0360476	13	183.373	3.4017e-05
2	0	0	1	0	10622.9	-0.921465	-0.923148	-0.0424747	2	0.032972	13	248.921	3.92104e-05
2	0	0	1	0	10688.9	-0.723422	-0.72523	-0.0203868	2	0.0309383	13	314.935	1.47851e-05
2	1	0	1	0	10754.9	-0.525379	-0.52699	-0.00255202	2	0.0302	13	380.949	1.34489e-06
2	0	0	1	0	10820.9	-0.327336	-0.329391	0.0121632	3	0.0305426	13	56.0121	-4.00647e-06
2	1	0	1	0	10886.9	-0.129293	-0.130951	0.0229691	3	0.0317319	13	122.026	-3.00782e-06
2	1	0	1	0	10953	0.0687494	0.0667733	0.0249762	3	0.0334061	13	188.041	1.66774e-06
2	1	0	1	0	11019	0.266792	0.265101	0.0201837	3	0.0348787	13	254.055	5.35072e-06
2	1	0	1	0	11085	0.464835	0.463587	0.0197759	3	0.0361834	13	320.069	9.16784e-06
2	1	0	1	0	11151	0.662878	0.661526	0.020701	3	0.037514	13	386.083	1.36942e-05
2	1	0	1	0	11217	0.86092	0.859478	0.022256	3	0.038931	13	452.098	1.91285e-05
2	1	0	1	0	11282.6	0.942438	0.941195	0.0223093	3	0.0404325	13	517.645	2.09974e-05
2	1	0	1	0	11348.6	0.744395	0.743091	0.0192968	3	0.0417998	13	583.66	1.43392e-05
2	1	0	1	0	11414.6	0.546352	0.544675	0.0165529	3	0.0429795	13	649.674	9.01596e-06
2	1	0	1	0	11480.6	0.348309	0.346966	0.0137597	3	0.0439799	13	715.688	4.77412e-06
2	0	0	1	0	11546.6	0.150267	0.149608	0.0108103	3	0.0447871	13	781.702	1.6173e-06
2	0	0	1	0	11612.6	-0.0477756	-0.0491584	0.00683918	3	0.0453683	13	847.717	-3.36203e-07
2	0	0	1	0	11678.6	-0.245819	-0.246745	0.0020191	3	0.0456088	13	913.731	-4.98203e-07
2	0	0	1	0	11744.7	-0.443861	-0.445492	-0.0034297	3	0.0455692	13	39.3418	1.5279e-06
2	0	0	1	0	11810.7	-0.641904	-0.643285	-0.0141662	3	0.0450166	13	105.356	9.11291e-06
2	0	0	1	0	11876.7	-0.839947	-0.841645	-0.0303819	3	0.0435763	13	171.37	2.55707e-05
2	0	0	1	1	11942.2	-0.963474	-0.965195	-0.0438962	3	0.0409085	13	236.918	4.23683e-05
2	0	0	1	1	12008.2	-0.765431	-0.766878	-0.0222151	3	0.0387741	13	302.933	1.70362e-05
2	1	0	1	1	12074.3	-0.567388	-0.568903	-0.0056729	3	0.037877	13	368.947	3.22733e-06
2	1	0	1	1	12140.3	-0.369345	-0.371319	0.00806529	4	0.0379902	13	41.6756	-2.9948e-06
2	1	0	1	1	12206.3	-0.171303	-0.173108	0.0176225	4	0.0388713	13	107.69	-3.05058e-06
2	1	0	1	1	12272.3	0.0267404	0.0250219	0.0203577	4	0.0401811	13	173.704	5.0939e-07
2	1	0	1	1	12338.3	0.224783	0.222325	0.0176265	4	0.0414404	13	239.718	3.91882e-06
2	1	0	1	1	12404.3	0.422826	0.421254	0.0170594	4	0.0425806	13	305.733	7.18633e-06
2	1	0	1	1	12470.3	0.620869	0.619181	0.0176128	4	0.0437225	13	371.747	1.09055e-05
2	1	0	1	1	12536.4	0.818911	0.817645	0.0187463	4	0.0449231	13	437.761	1.53278e-05
2	1	0	1	1	12601.9	0.984447	0.983178	0.0197981	4	0.0462011	13	503.309	1.94651e-05
2	1	0	1	1	12667.9	0.786404	0.784835	0.0169553	4	0.0474066	13	569.324	1.33071e-05
2	1	0	1	1	12733.9	0.588362	0.586888	0.0146583	4	0.0484441	13	635.338	8.60277e-06
2	1	0	1	1	12800	0.390319	0.387921	0.0122544	4	0.0493279	13	701.352	4.75374e-06
2	1	0	1	1	12866	0.192276	0.191295	0.0096219	4	0.0500469	13	767.366	1.84062e-06
2	1	0	1	1	12932	-0.0057666	-0.00734653	0.00637838	4	0.0505765	13	833.381	-4.6859e-08
2	1	0	1	1	12998	-0.20381	-0.205087	0.00144976	4	0.050815	13	899.395	-2.97327e-07
2	1	0	1	1	13064	-0.401853	-0.40371	-0.00180569	4	0.0508228	13	28.6729	7.28975e-07
2	0	0	1	1	13130	-0.599895	-0.60114	-0.0100334	4	0.0504644	13	94.6871	6.03149e-06
2	0	0	1	1	13196	-0.797938	-0.799256	-0.023917	4	0.049374	13	160.701	1.91158e-05
2	0	0	1	1	13262.1	-0.995981	-0.997813	-0.045392	4	0.0471507	13	226.716	4.52927e-05
2	0	0	1	0	13327.6	-0.80744	-0.809332	-0.0244483	4	0.044901	13	292.264	1.97868e-05
2	0	0	1	0	13393.6	-0.609397	-0.611279	-0.00835797	4	0.0438449	13	358.278	5.10905e-06
2	0	0	1	0	13459.6	-0.411355	-0.413014	0.0048974	5	0.0437549	13	27.0058	-2.0227e-06
2	1	0	1	0	13525.6	-0.213312	-0.215295	0.0137319	5	0.0444004	13	93.0201	-2.95642e-06
2	1	0	1	0	13591.7	-0.0152687	-0.0164653	0.0173828	5	0.0454644	13	159.034	-2.86213e-07
2	1	0	1	0	13657.7	0.182774	0.181373	0.0158072	5	0.0465765	13	225.049	2.867e-06
2	1	0	1	0	13723.7	0.380817	0.379481	0.0145472	5	0.0475707	13	291.063	5.52037e-06
2	1	0	1	0	13789.7	0.57886	0.577618	0.0146394	5	0.0485291	13	357.077	8.456e-06
2	1	0	1	0	13855.7	0.776902	0.775152	0.0151144	5	0.0495083	13	423.091	1.1716e-05
2	1	0	1	0	13921.7	0.974945	0.973492	0.0164338	5	0.0505481	13	489.106	1.59982e-05
2	1	0	1	0	13987.3	0.828413	0.826798	0.0141099	5	0.0515615	13	554.654	1.1666e-05
2	1	0	1	0	14053.3	0.63037	0.628692	0.0117108	5	0.0524135	13	620.668	7.36247e-06
2	1	0	1	0	14119.3	0.432328	0.430497	0.0097076	5	0.0531186	13	686.682	4.1791e-06
2	1	0	1	0	14185.3	0.234285	0.232853	0.0075865	5	0.0536889	13	752.696	1.76654e-06
2	1	0	1	0	14251.3	0.0362423	0.0346922	0.0052797	5	0.0541142	13	818.711	1.83164e-07
2	0	0	1	0	14317.3	-0.1618	-0.163549	0.000843325	5	0.0543283	13	884.725	-1.37925e-07
2	0	0	1	0	14383.4	-0.359843	-0.361549	-0.000884168	5	0.0543354	13	23.3384	3.1967e-07
2	0	0	1	0	14449.4	-0.557886	-0.559171	-0.00667125	5	0.0541159	13	89.3527	3.73037e-06
2	0	0	1	0	14515.4	-0.755929	-0.757166	-0.0183704	5	0.0533201	13	155.367	1.39095e-05
2	0	0	1	0	14581.4	-0.953971	-0.955406	-0.0362591	5	0.0515574	13	221.381	3.46421e-05
2	0	0	1	1	14647	-0.849449	-0.850796	-0.0260848	5	0.0492751	13	286.929	2.21928e-05
2	0	0	1	1	14713	-0.651406	-0.65304	-0.0106139	5	0.0480885	13	352.943	6.93131e-06
2	0	0	1	1	14779	-0.453364	-0.454608	0.0022123	5	0.0478244	13	12.336	-1.00573e-06
2	1	0	1	1	14844.4	-0.257121	-0.258508	0.0103462	6	0.0482588	13	77.7502	-2.67457e-06
2	1	0	1	1	14910.4	-0.0590783	-0.0604461	0.0139413	6	0.04909	13	143.764	-8.42696e-07
2	1	0	1	1	14976.4	0.138965	0.137588	0.0134033	6	0.0500116	13	209.779	1.84413e-06
2	1	0	1	1	15042.4	0.337007	0.335496	0.0124047	6	0.0508588	13	275.793	4.16172e-06
2	1	0	1	1	15108.5	0.53505	0.533466	0.0126093	6	0.0516811	13	341.807	6.72665e-06
2	1	0	1	1	15174.5	0.733093	0.731656	0.0132204	6	0.0525332	13	407.821	9.67282e-06
2	1	0	1	1	15240.5	0.931136	0.92878	0.013995	6	0.0534319	13	473.836	1.29983e-05
2	1	0	1	1	15306	0.872423	0.871195	0.0126509	6	0.0543255	13	539.317	1.10214e-05
2	1	0	1	1	15372	0.67438	0.672842	0.0106706	6	0.0550907	13	605.331	7.17961e-06
2	1	0	1	1	15438	0.476337	0.474983	0.00881418	6	0.0557334	13	671.346	4.18658e-06
2	1	0	1	1	15504	0.278295	0.275928	0.00684655	6	0.0562511	13	737.36	1.88916e-06
2	1	0	1	1	15570	0.0802519	0.0794581	0.00496812	6	0.0566453	13	803.374	3.94757e-07
2	1	0	1	1	15636	-0.117791	-0.11922	0.00146779	6	0.0568771	13	869.388	-1.7499e-07
2	1	0	1	1	15702	-0.315834	-0.317459	-0.000389887	6	0.0568908	13	14.003	1.23773e-07
2	0	0	1	1	15768.1	-0.513876	-0.515347	-0.00425491	6	0.0567573	13	80.0173	2.19275e-06
2	0	0	1	1	15834.1	-0.711919	-0.713339	-0.0135807	6	0.0561969	13	146.032	9.68762e-06
2	0	0	1	1	15900.1	-0.909962	-0.91199	-0.0285044	6	0.0548337	13	212.046	2.59957e-05
2	0	0	1	0	15965.6	-0.893459	-0.895325	-0.0277322	6	0.0526712	13	277.594	2.48293e-05
2	0	0	1	0	16031.7	-0.695416	-0.6967	-0.0126004	6	0.0513656	13	343.608	8.77871e-06
2	1	0	1	0	16097.7	-0.497373	-0.499933	-0.000652325	6	0.0509412	13	409.622	3.26119e-07
2	1	0	1	0	16117.2	-0.43881	-0.44096	0.00545878	6	0.0509612	13	0.000000000000000E+000	-2.4071e-06