File: resorufin_10x_frittedTiCt_FTOWE_AgAgClref_N2sparge_3_16_CV_C12/resorufin_10x_frittedTiCt_FTOWE_AgAgClref_N2sparge_3_02_CV_C12.txt
EC-Lab ASCII FILE
Nb header lines : 59

Cyclic Voltammetry

Run on channel : 12 (SN 15159)
User :
CE vs. WE compliance from -10 V to 10 V
Electrode connection : standard
Potential control : Ewe
Ewe ctrl range : min = -2.50 V, max = 2.50 V
Safety Limits :
	Do not start on E overload
Acquisition started on : 06/27/2024 22:37:21.030
Technique started on : 06/27/2024 22:37:51.081
Loaded Setting File :  NONE
Saved on :
	File : resorufin_10x_frittedTiCt_FTOWE_AgAgClref_N2sparge_3_02_CV_C12.mpr
	Directory : C:\Users\user\OneDrive - California Institute of Technology\Desktop\Big James\06272024_resorufin_spEC_test\
	Host : 10.8.34.190
Device : VMP3 (SN 1026)
Address : 131.215.231.69
EC-Lab for windows v11.50 (software)
Internet server v11.52 (firmware)
Command interpretor v11.50 (firmware)
Electrode material : Au/Pd
Initial state :
Electrolyte : NaCl (0.2M)
Comments : Fe(CN)63-/Fe(CN)64- 5.10-3 M
Reference electrode : SCE Saturated Calomel Electrode (0.241 V)
Electrode surface area : 0.001 cm²
Characteristic mass : 0.001 g
Equivalent Weight : 0.000 g/eq.
Density : 0.000 g/cm3
Volume (V) : 0.001 cm³
Cycle Definition : Charge/Discharge alternance
Ei (V)              0.000
vs.                 Eoc
dE/dt               2000.000
dE/dt unit          mV/s
E1 (V)              1.000
vs.                 Ref
Step percent        50
N                   10
E range min (V)     -2.500
E range max (V)     2.500
I Range             Auto
I Range min         Unset
I Range max         Unset
I Range init        Unset
Bandwidth           5
E2 (V)              -1.000
vs.                 Ref
nc cycles           10
Reverse Scan        1
Ef (V)              0.000
vs.                 Eoc

mode	ox/red	error	control changes	counter inc.	time/s	control/V	Ewe/V	<I>/mA	cycle number	(Q-Qo)/C	I Range	step time/s	P/W
2	0	0	0	0	30.0508	-0.375797	-0.376864	-0.00684808	1	0.0000000E+000	14	0.000000000000000E+000	2.5808e-06
2	1	0	1	0	30.2899	0.102407	0.100926	0.21253	1	3.74271e-05	12	0.221	2.14499e-05
2	1	0	1	0	30.4699	0.462384	0.460907	0.239938	1	7.53413e-05	12	0.401	0.000110589
2	1	0	1	0	30.6499	0.822362	0.820954	0.301764	1	0.000123758	12	0.581	0.000247734
2	1	0	1	0	30.8241	0.829563	0.82811	0.252055	1	0.000175872	12	0.7552	0.000208729
2	1	0	1	0	31.0041	0.469586	0.468105	0.165937	1	0.000213018	12	0.9352	7.7676e-05
2	1	0	1	0	31.1841	0.109608	0.108196	0.049433	1	0.000233707	12	1.1152	5.34844e-06
2	0	0	1	0	31.3641	-0.25037	-0.251958	-0.180434	1	0.000222377	12	0.122	4.54617e-05
2	0	0	1	0	31.5441	-0.610347	-0.61173	-0.132084	1	0.000196145	12	0.302	8.07997e-05
2	0	0	1	0	31.7241	-0.970425	-0.97197	-0.215736	1	0.000165601	12	0.482	0.000209689
2	0	0	1	1	31.8985	-0.681163	-0.682738	-0.0333005	1	0.000149856	12	0.6564	2.27356e-05
2	1	0	1	1	32.0765	-0.325186	-0.326714	0.105135	2	0.000153205	12	0.106	-3.43491e-05
2	1	0	1	1	32.2565	0.0347921	0.0333321	0.231027	2	0.000185871	12	0.286	7.70061e-06
2	1	0	1	1	32.4365	0.39477	0.393245	0.22305	2	0.000223144	12	0.466	8.77131e-05
2	1	0	1	1	32.6165	0.754847	0.753452	0.281978	2	0.000268474	12	0.646	0.000212457
2	1	0	1	1	32.7905	0.897578	0.896149	0.26745	2	0.000320894	12	0.82	0.000239675
2	1	0	1	1	32.9705	0.5376	0.536155	0.179516	2	0.000360543	12	1	9.62484e-05
2	1	0	1	1	33.1505	0.177623	0.176096	0.0729102	2	0.000384061	12	1.18	1.28392e-05
2	0	0	1	1	33.3305	-0.182355	-0.183928	-0.166922	2	0.000380268	12	0.09	3.07016e-05
2	0	0	1	1	33.5105	-0.542433	-0.543864	-0.126993	2	0.00035159	12	0.27	6.90671e-05
2	0	0	1	1	33.6905	-0.90241	-0.903979	-0.197194	2	0.000323531	12	0.45	0.000178259
2	0	0	1	0	33.8649	-0.749177	-0.750752	-0.0511855	2	0.00030198	12	0.6244	3.84276e-05
2	1	0	1	0	34.0449	-0.3892	-0.390725	0.0496463	2	0.000301086	12	0.074	-1.9398e-05
2	1	0	1	0	34.2229	-0.0332226	-0.0347833	0.233096	3	0.000328174	12	0.252	-8.10787e-06
2	1	0	1	0	34.4029	0.326755	0.325235	0.209368	3	0.000365895	12	0.432	6.80938e-05
2	1	0	1	0	34.5829	0.686833	0.685412	0.265108	3	0.000408584	12	0.612	0.000181708
2	1	0	1	0	34.7569	0.965593	0.964154	0.287424	3	0.000460587	12	0.786	0.000277121
2	1	0	1	0	34.9369	0.605615	0.604148	0.19331	3	0.000503033	12	0.966	0.000116788
2	1	0	1	0	35.1169	0.245638	0.244089	0.0923873	3	0.000529321	12	1.146	2.25507e-05
2	0	0	1	0	35.2969	-0.11444	-0.115994	-0.115817	3	0.000533173	12	0.056	1.34341e-05
2	0	0	1	0	35.4769	-0.474418	-0.475849	-0.132466	3	0.000503522	12	0.236	6.30337e-05
2	0	0	1	0	35.6569	-0.834396	-0.836016	-0.180648	3	0.000477347	12	0.416	0.000151025
2	0	0	1	1	35.8313	-0.817192	-0.81872	-0.0682843	3	0.000451273	12	0.5904	5.59057e-05
2	1	0	1	1	36.0113	-0.457214	-0.458765	0.0185488	3	0.00044671	12	0.03	-8.50954e-06
2	1	0	1	1	36.1893	-0.101237	-0.102818	0.212742	4	0.000467504	12	0.208	-2.18738e-05
2	1	0	1	1	36.3693	0.25884	0.25727	0.199868	4	0.000505884	12	0.388	5.14198e-05
2	1	0	1	1	36.5493	0.618818	0.617427	0.249538	4	0.00054615	12	0.568	0.000154072
2	1	0	1	1	36.7293	0.978796	0.977358	0.323766	4	0.000598172	12	0.748	0.000316435
2	1	0	1	1	36.9033	0.67363	0.672158	0.2089	4	0.000642201	12	0.922	0.000140414
2	1	0	1	1	37.0833	0.313652	0.312095	0.109533	4	0.000671253	12	1.102	3.41848e-05
2	0	0	1	1	37.2633	-0.0464255	-0.0479712	-0.0491359	4	0.00068135	12	0.024	2.35711e-06
2	0	0	1	1	37.4433	-0.406403	-0.407849	-0.154176	4	0.000653497	12	0.204	6.28803e-05
2	0	0	1	1	37.6233	-0.766381	-0.767964	-0.164571	4	0.000628202	12	0.384	0.000126385
2	0	0	1	0	37.7977	-0.885207	-0.886729	-0.0874468	4	0.000598831	12	0.5584	7.75416e-05
2	1	0	1	0	37.9777	-0.525229	-0.526786	-0.00552669	4	0.000591003	12	0.006	2.91138e-06
2	1	0	1	0	38.1557	-0.169152	-0.170739	0.179994	5	0.000605474	12	0.17	-3.07321e-05
2	1	0	1	0	38.3357	0.190826	0.189281	0.197801	5	0.000643866	12	0.35	3.744e-05
2	1	0	1	0	38.5157	0.550803	0.549358	0.235314	5	0.000682039	12	0.53	0.000129272
2	1	0	1	0	38.6957	0.910781	0.909353	0.307489	5	0.000731479	12	0.71	0.000279616
2	1	0	1	0	38.8697	0.741644	0.740225	0.224204	5	0.000778764	12	0.884	0.000165962
2	1	0	1	0	39.0497	0.381567	0.380029	0.126245	5	0.000810611	12	1.064	4.79769e-05
2	1	0	1	0	39.2297	0.0215892	0.0200646	0.00682826	5	0.000825403	12	1.244	1.37007e-07
2	0	0	1	0	39.4097	-0.338389	-0.339803	-0.181161	5	0.00080246	12	0.17	6.15593e-05
2	0	0	1	0	39.5897	-0.698366	-0.699925	-0.150202	5	0.000776667	12	0.35	0.00010513
2	0	0	1	1	39.7641	-0.953221	-0.954794	-0.114828	5	0.000745294	12	0.5244	0.000109637
2	0	0	1	1	39.9441	-0.593244	-0.594787	-0.0250038	5	0.000734221	12	0.7044	1.48719e-05
2	1	0	1	1	40.1221	-0.237167	-0.238724	0.140205	6	0.000742874	12	0.136	-3.34703e-05
2	1	0	1	1	40.3021	0.122811	0.121233	0.206639	6	0.000779977	12	0.316	2.50515e-05
2	1	0	1	1	40.4821	0.482789	0.481415	0.223151	6	0.000816664	12	0.496	0.000107428
2	1	0	1	1	40.6621	0.842766	0.841309	0.293854	6	0.000863647	12	0.676	0.000247222
2	1	0	1	1	40.8361	0.809559	0.808125	0.240446	6	0.000913172	12	0.85	0.00019431
2	1	0	1	1	41.0161	0.449582	0.448018	0.141174	6	0.000947825	12	1.03	6.32487e-05
2	1	0	1	1	41.1961	0.0896039	0.0881036	0.0442501	6	0.000966298	12	1.21	3.89859e-06
2	0	0	1	1	41.3761	-0.270374	-0.271789	-0.191898	6	0.000950687	12	0.132	5.21557e-05
2	0	0	1	1	41.5561	-0.630352	-0.631905	-0.137809	6	0.00092314	12	0.312	8.70825e-05
2	0	0	1	1	41.7361	-0.990429	-0.991945	-0.219056	6	0.000891158	12	0.492	0.000217292
2	0	0	1	0	41.9105	-0.661158	-0.662672	-0.0415902	6	0.000876572	12	0.6664	2.75607e-05
2	1	0	1	0	42.0885	-0.305181	-0.30672	0.0994765	7	0.000880188	12	0.102	-3.05114e-05
2	1	0	1	0	42.2685	0.0547964	0.0532608	0.225981	7	0.000914121	12	0.282	1.20359e-05
2	1	0	1	0	42.4485	0.414774	0.413436	0.210527	7	0.000950327	12	0.462	8.70394e-05
2	1	0	1	0	42.6285	0.774852	0.77336	0.279081	7	0.000994909	12	0.642	0.00021583
2	1	0	1	0	42.8025	0.877574	0.876148	0.257008	7	0.00104566	12	0.816	0.000225177
2	1	0	1	0	42.9825	0.517596	0.516058	0.15632	7	0.00108317	12	0.996	8.06704e-05
2	1	0	1	0	43.1625	0.157619	0.156095	0.0704597	7	0.00110481	12	1.176	1.09984e-05
2	0	0	1	0	43.3425	-0.202359	-0.2038	-0.177169	7	0.00109764	12	0.1	3.61069e-05
2	0	0	1	0	43.5225	-0.562437	-0.563993	-0.129343	7	0.00106796	12	0.28	7.29482e-05
2	0	0	1	0	43.7025	-0.922415	-0.923954	-0.198835	7	0.00103872	12	0.46	0.000183714
2	0	0	1	1	43.8769	-0.729173	-0.730704	-0.0578778	7	0.00101823	12	0.6344	4.22915e-05
2	1	0	1	1	44.0549	-0.373196	-0.374743	0.0609519	8	0.00101762	12	0.07	-2.28413e-05
2	1	0	1	1	44.2349	-0.0132183	-0.0148589	0.235144	8	0.00104641	12	0.25	-3.49398e-06
2	1	0	1	1	44.4149	0.346759	0.345359	0.199989	8	0.00108322	12	0.43	6.9068e-05
2	1	0	1	1	44.5949	0.706837	0.705326	0.265852	8	0.00112546	12	0.61	0.000187512
2	1	0	1	1	44.7689	0.945588	0.944164	0.27716	8	0.00117641	12	0.784	0.000261684
2	1	0	1	1	44.9489	0.585611	0.584133	0.171499	8	0.00121686	12	0.964	0.000100178
2	1	0	1	1	45.1289	0.225633	0.224122	0.0904799	8	0.00124142	12	1.144	2.02786e-05
2	0	0	1	1	45.3089	-0.134444	-0.135869	-0.128636	8	0.00124244	12	0.066	1.74776e-05
2	0	0	1	1	45.4889	-0.494422	-0.496004	-0.132459	8	0.00121154	12	0.246	6.57002e-05
2	0	0	1	1	45.6689	-0.8544	-0.855956	-0.181118	8	0.00118454	12	0.426	0.000155029
2	0	0	1	0	45.8433	-0.797188	-0.798719	-0.0728827	8	0.00115935	12	0.6004	5.82128e-05
2	1	0	1	0	46.0233	-0.43721	-0.438925	0.0353716	8	0.00115527	12	0.038	-1.55255e-05
2	1	0	1	0	46.2013	-0.081233	-0.0829159	0.21829	9	0.0011777	12	0.216	-1.80997e-05
2	1	0	1	0	46.3813	0.278845	0.277326	0.1918	9	0.00121546	12	0.396	5.31911e-05
2	1	0	1	0	46.5613	0.638822	0.637268	0.252369	9	0.00125545	12	0.576	0.000160826
2	1	0	1	0	46.741	0.9982	0.996907	0.331044	9	0.00130705	12	0.7557	0.00033002
2	1	0	1	0	46.9153	0.653625	0.652159	0.187925	9	0.001349	12	0.93	0.000122557
2	1	0	1	0	47.0953	0.293648	0.292144	0.108103	9	0.00137642	12	1.11	3.15816e-05
2	0	0	1	0	47.2753	-0.0664298	-0.0678649	-0.0596365	9	0.00138429	12	0.032	4.04723e-06
2	0	0	1	0	47.4553	-0.426408	-0.428012	-0.151853	9	0.00135455	12	0.212	6.4995e-05
2	0	0	1	0	47.6353	-0.786385	-0.78794	-0.164863	9	0.00132883	12	0.392	0.000129902
2	0	0	1	1	47.8097	-0.865202	-0.866798	-0.089783	9	0.00130008	12	0.5664	7.78238e-05
2	1	0	1	1	47.9897	-0.505225	-0.506933	0.00884531	9	0.00129283	12	0.004	-4.48398e-06
2	1	0	1	1	48.1677	-0.149148	-0.150835	0.187197	10	0.00130883	12	0.182	-2.82359e-05
2	1	0	1	1	48.3477	0.21083	0.209349	0.188714	10	0.00134705	12	0.362	3.95072e-05
2	1	0	1	1	48.5277	0.570808	0.569232	0.239315	10	0.00138501	12	0.542	0.000136226
2	1	0	1	1	48.7077	0.930785	0.929373	0.312027	10	0.00143424	12	0.722	0.000289989
2	1	0	1	1	48.8817	0.72164	0.720247	0.205286	10	0.00147973	12	0.896	0.000147857
2	1	0	1	1	49.0617	0.361562	0.360064	0.124076	10	0.00150999	12	1.076	4.46754e-05
2	1	0	1	1	49.2417	0.00158492	0.000230378	0.00139095	10	0.00152301	12	0.000000000000000E+000	3.20445e-10
2	0	0	1	1	49.4217	-0.358393	-0.359959	-0.179764	10	0.00149755	12	0.178	6.47077e-05
2	0	0	1	1	49.6017	-0.718371	-0.719905	-0.149946	10	0.00147173	12	0.358	0.000107947
2	0	0	1	0	49.7761	-0.933217	-0.934704	-0.111767	10	0.00144064	12	0.5324	0.000104469
2	0	0	1	0	49.9561	-0.573239	-0.574839	-0.0129938	10	0.0014303	12	0.7124	7.46933e-06
2	1	0	1	0	50.1341	-0.217162	-0.218827	0.147486	11	0.00144028	12	0.148	-3.22739e-05
2	1	0	1	0	50.3141	0.142815	0.141323	0.195621	11	0.0014778	12	0.328	2.76458e-05
2	1	0	1	0	50.4941	0.502793	0.501215	0.224883	11	0.00151418	12	0.508	0.000112715
2	1	0	1	0	50.6741	0.862771	0.86138	0.300555	11	0.00156104	12	0.688	0.000258892
2	1	0	1	0	50.8481	0.789555	0.788186	0.22369	11	0.00160916	12	0.862	0.00017631
2	1	0	1	0	51.0281	0.429577	0.42807	0.139382	11	0.00164225	12	1.042	5.96655e-05
2	1	0	1	0	51.2081	0.0695996	0.0681739	0.0433535	11	0.0016592	12	1.222	2.95558e-06
2	0	0	1	0	51.3881	-0.290378	-0.291913	-0.198726	11	0.00164067	12	0.144	5.80106e-05
2	0	0	1	0	51.5681	-0.650356	-0.651925	-0.137118	11	0.00161336	12	0.324	8.93908e-05
2	0	0	0	1	51.7434	-0.999831	-1.00157	-0.239564	11	0.00158148	12	0.4993	0.00023994
2	0	0	1	1	51.9225	-0.641154	-0.64268	-0.0306771	11	0.00156762	12	0.6784	1.97155e-05
2	1	0	0	1	52.0554	-0.375396	-0.376959	0.0563149	11	0.00156859	12	0.0689	-2.12284e-05