File: resorufin_10x_frittedTiCt_FTOWE_AgAgClref_N2sparge_3_16_CV_C12/resorufin_10x_frittedTiCt_FTOWE_AgAgClref_N2sparge_3_12_CV_C12.txt
EC-Lab ASCII FILE
Nb header lines : 59

Cyclic Voltammetry

Run on channel : 12 (SN 15159)
User :
CE vs. WE compliance from -10 V to 10 V
Electrode connection : standard
Potential control : Ewe
Ewe ctrl range : min = -2.50 V, max = 2.50 V
Safety Limits :
	Do not start on E overload
Acquisition started on : 06/27/2024 22:37:21.030
Technique started on : 06/27/2024 22:55:07.648
Loaded Setting File :  NONE
Saved on :
	File : resorufin_10x_frittedTiCt_FTOWE_AgAgClref_N2sparge_3_12_CV_C12.mpr
	Directory : C:\Users\user\OneDrive - California Institute of Technology\Desktop\Big James\06272024_resorufin_spEC_test\
	Host : 10.8.34.190
Device : VMP3 (SN 1026)
Address : 131.215.231.69
EC-Lab for windows v11.50 (software)
Internet server v11.52 (firmware)
Command interpretor v11.50 (firmware)
Electrode material : Au/Pd
Initial state :
Electrolyte : NaCl (0.2M)
Comments : Fe(CN)63-/Fe(CN)64- 5.10-3 M
Reference electrode : SCE Saturated Calomel Electrode (0.241 V)
Electrode surface area : 0.001 cm²
Characteristic mass : 0.001 g
Equivalent Weight : 0.000 g/eq.
Density : 0.000 g/cm3
Volume (V) : 0.001 cm³
Cycle Definition : Charge/Discharge alternance
Ei (V)              0.000
vs.                 Eoc
dE/dt               25.000
dE/dt unit          mV/s
E1 (V)              1.000
vs.                 Ref
Step percent        50
N                   10
E range min (V)     -2.500
E range max (V)     2.500
I Range             Auto
I Range min         Unset
I Range max         Unset
I Range init        Unset
Bandwidth           5
E2 (V)              -1.000
vs.                 Ref
nc cycles           5
Reverse Scan        1
Ef (V)              0.000
vs.                 Eoc

mode	ox/red	error	control changes	counter inc.	time/s	control/V	Ewe/V	<I>/mA	cycle number	(Q-Qo)/C	I Range	step time/s	P/W
2	0	0	0	0	1066.62	-0.367795	-0.369415	-0.00801065	1	0.0000000E+000	13	0.000000000000000E+000	2.95926e-06
2	1	0	0	0	1074.48	-0.171202	-0.172798	0.0333283	1	0.000131386	13	7.8016	-5.75907e-06
2	1	0	1	0	1082.36	0.0258401	0.0244182	0.0598569	1	0.000497045	13	15.6834	1.4616e-06
2	1	0	1	0	1090.25	0.222883	0.22127	0.0831663	1	0.00106568	13	23.565	1.84022e-05
2	1	0	0	0	1098.16	0.420625	0.419227	0.106773	1	0.00182202	12	31.4748	4.4762e-05
2	1	0	0	0	1106.04	0.617668	0.616206	0.123707	1	0.00273208	12	39.3564	7.6229e-05
2	1	0	1	0	1113.92	0.81471	0.813184	0.137813	1	0.00376675	12	47.2382	0.000112067
2	1	0	0	0	1121.75	0.989448	0.988041	0.145332	1	0.00488917	12	55.0724	0.000143594
2	1	0	0	0	1129.63	0.792405	0.790996	0.116536	1	0.0059139	12	62.954	9.21794e-05
2	1	0	1	0	1137.52	0.595363	0.593936	0.0933282	1	0.00673686	12	70.8358	5.5431e-05
2	1	0	1	0	1145.4	0.39832	0.396829	0.0731145	1	0.00738904	12	78.7174	2.90139e-05
2	1	0	0	0	1153.28	0.201278	0.199733	0.053432	1	0.00788449	12	86.5992	1.06721e-05
2	1	0	0	0	1161.19	0.00343532	0.00203311	0.0318947	1	0.00822422	13	94.5128	6.48454e-08
2	0	0	1	0	1169.07	-0.193607	-0.195126	0.00546399	1	0.0083711	13	102.395	-1.06616e-06
2	0	0	1	0	1176.96	-0.39065	-0.392082	-0.0109263	1	0.008347	13	4.761	4.28401e-06
2	0	0	0	0	1184.84	-0.587692	-0.589163	-0.0329139	1	0.00817406	13	12.6428	1.93916e-05
2	0	0	1	0	1192.72	-0.784735	-0.786146	-0.0564132	1	0.00782225	13	20.5245	4.4349e-05
2	0	0	1	0	1200.6	-0.981778	-0.98337	-0.0833002	1	0.00727357	13	28.4062	8.19149e-05
2	0	0	0	1	1208.44	-0.822443	-0.823985	-0.0567469	1	0.00671499	13	36.2404	4.67586e-05
2	0	0	0	1	1216.32	-0.625401	-0.62683	-0.0290013	1	0.00637911	13	44.122	1.81789e-05
2	0	0	1	1	1224.2	-0.428358	-0.429835	-0.00122269	1	0.00625916	13	52.0038	5.25555e-07
2	1	0	1	1	1232.02	-0.232916	-0.23442	0.0269006	2	0.00635653	13	7.2575	-6.30602e-06
2	1	0	0	1	1239.9	-0.0358732	-0.0373967	0.0539211	2	0.00667329	13	15.1393	-2.01647e-06
2	1	0	0	1	1247.78	0.161169	0.159721	0.0769995	2	0.00719129	13	23.0209	1.22984e-05
2	1	0	1	1	1255.69	0.358912	0.357474	0.100389	2	0.00789676	12	30.9307	3.58863e-05
2	1	0	1	1	1263.57	0.555954	0.554426	0.11755	2	0.00875947	12	38.8123	6.5173e-05
2	1	0	0	1	1271.45	0.752997	0.751474	0.132201	2	0.00974754	12	46.6941	9.93459e-05
2	1	0	0	1	1279.34	0.950039	0.948616	0.141504	2	0.010827	12	54.5757	0.000134233
2	1	0	0	1	1287.16	0.854419	0.852964	0.120017	2	0.0118731	12	62.3981	0.00010237
2	1	0	0	1	1295.04	0.657376	0.655921	0.0962088	2	0.0127202	12	70.2797	6.31054e-05
2	1	0	1	1	1302.92	0.460334	0.458839	0.0754429	2	0.0133944	12	78.1615	3.46161e-05
2	1	0	1	1	1310.8	0.263291	0.261806	0.0564588	2	0.0139147	12	86.0431	1.47812e-05
2	1	0	0	1	1318.71	0.0655487	0.0640252	0.0373347	2	0.0142878	13	93.9529	2.39036e-06
2	1	0	0	1	1326.59	-0.131494	-0.132998	0.012707	2	0.0144923	13	101.834	-1.69e-06
2	0	0	1	1	1334.48	-0.328536	-0.330134	-0.00606015	2	0.0145112	13	2.2806	2.00066e-06
2	0	0	1	1	1342.36	-0.525579	-0.527116	-0.0236252	2	0.0143941	13	10.1622	1.24532e-05
2	0	0	0	1	1350.24	-0.722622	-0.724207	-0.0464856	2	0.0141126	13	18.044	3.36652e-05
2	0	0	0	1	1358.12	-0.919664	-0.921176	-0.0723589	2	0.0136438	13	25.9256	6.66553e-05
2	0	0	1	0	1365.96	-0.884457	-0.886155	-0.0650185	2	0.0130564	13	33.7638	5.76164e-05
2	0	0	0	0	1373.84	-0.687414	-0.689052	-0.0368251	2	0.0126621	13	41.6456	2.53744e-05
2	0	0	0	0	1381.72	-0.490371	-0.491939	-0.00931862	2	0.0124797	13	49.5272	4.58419e-06
2	1	0	1	0	1389.54	-0.294929	-0.296639	0.0168143	3	0.0125076	13	4.697	-4.98778e-06
2	1	0	1	0	1397.42	-0.0978866	-0.0994779	0.0433419	3	0.0127519	13	12.5786	-4.31156e-06
2	1	0	0	0	1405.3	0.099156	0.0976393	0.0675361	3	0.0131985	13	20.4604	6.59418e-06
2	1	0	0	0	1413.19	0.296198	0.294742	0.0897619	3	0.0138276	13	28.342	2.64566e-05
2	1	0	1	0	1421.09	0.493941	0.492446	0.108621	3	0.0146226	12	36.2518	5.34898e-05
2	1	0	1	0	1428.98	0.690984	0.689543	0.122693	3	0.0155418	12	44.1334	8.46021e-05
2	1	0	0	0	1436.86	0.888026	0.886624	0.133166	3	0.0165533	12	52.0152	0.000118068
2	1	0	1	0	1444.68	0.916432	0.915007	0.122911	3	0.0175898	12	59.8374	0.000112464
2	1	0	0	0	1452.56	0.71939	0.717963	0.0972975	3	0.0184543	12	67.7192	6.9856e-05
2	1	0	0	0	1460.44	0.522347	0.520904	0.0774668	3	0.0191428	12	75.6008	4.03528e-05
2	1	0	1	0	1468.33	0.325305	0.323822	0.0598669	3	0.0196809	12	83.4826	1.93862e-05
2	1	0	1	0	1476.24	0.127462	0.125933	0.0418116	3	0.0200807	13	91.3962	5.26547e-06
2	1	0	0	0	1484.12	-0.0695805	-0.0711255	0.0211836	3	0.0203306	13	99.278	-1.50669e-06
2	0	0	0	0	1492	-0.266623	-0.268144	0.000946025	3	0.020397	13	0.000000000000000E+000	-2.53671e-07
2	0	0	1	0	1499.88	-0.463666	-0.465185	-0.0168879	3	0.0203283	13	7.5618	7.85601e-06
2	0	0	1	0	1507.77	-0.660708	-0.662172	-0.0385408	3	0.0201101	13	15.4434	2.55206e-05
2	0	0	0	0	1515.65	-0.857751	-0.859273	-0.0620318	3	0.0197147	13	23.3252	5.33023e-05
2	0	0	1	1	1523.48	-0.946472	-0.948098	-0.0733389	3	0.0191402	13	31.1593	6.95325e-05
2	0	0	1	1	1531.36	-0.749427	-0.751046	-0.0451632	3	0.0186864	13	39.041	3.39196e-05
2	0	0	0	1	1539.25	-0.552385	-0.554039	-0.0190696	3	0.0184431	13	46.9228	1.05653e-05
2	1	0	0	1	1547.06	-0.356943	-0.358552	0.00711746	4	0.0184053	13	2.2564	-2.55198e-06
2	1	0	1	1	1554.94	-0.159899	-0.161384	0.0357847	4	0.0185791	13	10.1381	-5.77509e-06
2	1	0	1	1	1562.83	0.0371426	0.0357852	0.0596679	4	0.018957	13	18.0198	2.13523e-06
2	1	0	0	1	1570.71	0.234185	0.232558	0.0820398	4	0.0195177	13	25.9016	1.9079e-05
2	1	0	0	1	1578.62	0.431928	0.430494	0.100464	4	0.0202455	12	33.8112	4.32493e-05
2	1	0	1	1	1586.5	0.62897	0.627452	0.115586	4	0.0211026	12	41.693	7.25246e-05
2	1	0	1	1	1594.38	0.826013	0.824553	0.125051	4	0.0220542	12	49.5746	0.000103111
2	1	0	0	1	1602.2	0.978446	0.977021	0.12645	4	0.0230566	12	57.3968	0.000123544
2	1	0	1	1	1610.09	0.781403	0.779923	0.0989169	4	0.0239376	12	65.2786	7.71476e-05
2	1	0	1	1	1617.97	0.584361	0.582973	0.0794326	4	0.0246359	12	73.1602	4.6307e-05
2	1	0	0	1	1625.85	0.387318	0.385813	0.0615216	4	0.0251867	12	81.042	2.37358e-05
2	1	0	0	1	1633.76	0.189575	0.188115	0.0440226	4	0.025606	13	88.9516	8.28133e-06
2	1	0	1	1	1641.64	-0.00746704	-0.00896896	0.0272754	4	0.0258899	13	96.8334	-2.44632e-07
2	0	0	1	1	1649.52	-0.20451	-0.206011	0.00343266	4	0.0260075	13	104.715	-7.07166e-07
2	1	0	0	1	1657.4	-0.401552	-0.403114	-0.0116291	4	0.0259814	13	4.961	4.68787e-06
2	0	0	0	1	1665.29	-0.598595	-0.599995	-0.0291602	4	0.0258193	13	12.8426	1.7496e-05
2	0	0	1	1	1673.17	-0.795637	-0.79712	-0.0525852	4	0.025492	13	20.7244	4.19167e-05
2	0	0	1	1	1681.05	-0.992682	-0.994169	-0.0807063	4	0.0249708	13	28.6061	8.02357e-05
2	0	0	0	0	1688.89	-0.811441	-0.812922	-0.052524	4	0.0244557	13	36.4442	4.26979e-05
2	0	0	1	0	1696.77	-0.614398	-0.61595	-0.0258914	4	0.0241528	13	44.326	1.59478e-05
2	0	0	1	0	1704.65	-0.417356	-0.418912	-0.000250093	4	0.0240521	13	0.000000000000000E+000	1.04767e-07
2	1	0	0	0	1712.47	-0.221913	-0.223502	0.0259512	5	0.0241573	13	7.7778	-5.80015e-06
2	1	0	0	0	1720.35	-0.0248708	-0.0263872	0.0523251	5	0.0244683	13	15.6594	-1.38072e-06
2	1	0	1	0	1728.23	0.172172	0.170708	0.0733434	5	0.0249645	13	23.5412	1.25203e-05
2	1	0	1	0	1736.11	0.369214	0.367746	0.092409	5	0.0256256	13	31.4228	3.39831e-05
2	1	0	0	0	1744.02	0.566957	0.565518	0.10881	5	0.0264281	12	39.3326	6.15338e-05
2	1	0	0	0	1751.9	0.763999	0.762524	0.117972	5	0.0273251	12	47.2142	8.99565e-05
2	1	0	1	0	1759.79	0.961042	0.959621	0.124279	5	0.0282841	12	55.096	0.000119261
2	1	0	0	0	1767.61	0.843416	0.841946	0.101619	5	0.0291818	12	62.9182	8.55581e-05
2	1	0	1	0	1775.49	0.646374	0.644861	0.0807771	5	0.0298985	12	70.8	5.209e-05
2	1	0	1	0	1783.37	0.449331	0.447818	0.0642595	5	0.0304685	12	78.6816	2.87766e-05
2	1	0	0	0	1791.25	0.252289	0.250826	0.048099	5	0.0309106	12	86.5634	1.20645e-05
2	1	0	0	0	1799.16	0.0545463	0.053057	0.032526	5	0.0312273	13	94.473	1.72573e-06
2	0	0	1	0	1807.04	-0.142496	-0.144128	0.0101004	5	0.0313972	13	102.355	-1.45575e-06
2	0	0	1	0	1814.93	-0.339539	-0.341025	-0.0066967	5	0.0314104	13	2.4804	2.28374e-06
2	0	0	0	0	1822.81	-0.536581	-0.53801	-0.022416	5	0.0312972	13	10.3622	1.206e-05
2	0	0	0	0	1830.69	-0.733624	-0.735133	-0.0440412	5	0.0310317	13	18.2438	3.23762e-05
2	0	0	1	0	1838.57	-0.930666	-0.932272	-0.0705161	5	0.0305845	13	26.1256	6.57402e-05
2	0	0	0	1	1846.41	-0.873454	-0.874937	-0.0583872	5	0.0300269	13	33.9638	5.10851e-05
2	0	0	0	1	1854.29	-0.676412	-0.677851	-0.0330306	5	0.0296649	13	41.8454	2.23898e-05
2	0	0	1	1	1862.17	-0.479369	-0.480988	-0.00826597	5	0.0295033	13	49.7272	3.97583e-06
2	1	0	1	1	1869.99	-0.283927	-0.28556	0.0171017	6	0.0295423	13	5.2572	-4.88356e-06
2	1	0	0	1	1877.87	-0.0868842	-0.0883836	0.0435694	6	0.0297863	13	13.139	-3.85082e-06
2	1	0	0	1	1885.75	0.110158	0.108706	0.0655226	6	0.0302184	13	21.0206	7.12271e-06
2	1	0	1	1	1893.64	0.307201	0.305663	0.0852424	6	0.0308175	13	28.9024	2.60554e-05
2	1	0	1	1	1901.55	0.504943	0.503439	0.101209	6	0.0315611	12	36.812	5.09528e-05
2	1	0	0	1	1909.43	0.701986	0.70056	0.111715	6	0.032407	12	44.6938	7.82631e-05
2	1	0	0	1	1917.31	0.899028	0.897692	0.119064	6	0.03332	12	52.5754	0.000106882
2	1	0	1	1	1925.13	0.90543	0.903994	0.106239	6	0.0342306	12	60.3976	9.60394e-05
2	1	0	0	1	1933.01	0.708387	0.706899	0.0845037	6	0.0349772	12	68.2794	5.97356e-05
2	1	0	1	1	1940.89	0.511346	0.509824	0.0671402	6	0.0355745	12	76.1611	3.42297e-05
2	1	0	1	1	1948.78	0.314302	0.312918	0.0531339	6	0.0360449	12	84.0428	1.66265e-05
2	1	0	0	1	1956.69	0.11656	0.115208	0.0359172	6	0.036395	13	91.9526	4.13796e-06
2	1	0	0	1	1964.57	-0.0804828	-0.0821796	0.0170049	6	0.0366124	13	99.8342	-1.39745e-06
2	1	0	1	1	1972.45	-0.277525	-0.2791	-0.000574533	6	0.0366676	13	0.04	1.60352e-07
2	0	0	1	1	1980.33	-0.474568	-0.47604	-0.016619	6	0.0365976	13	7.9216	7.91132e-06
2	0	0	0	1	1988.21	-0.671611	-0.673107	-0.0365106	6	0.0363882	13	15.8034	2.45756e-05
2	0	0	0	1	1996.09	-0.868653	-0.87016	-0.0606173	6	0.0360087	13	23.685	5.27467e-05
2	0	0	1	0	2003.93	-0.935468	-0.936954	-0.067319	6	0.0354534	13	31.5232	6.30748e-05
2	0	0	1	0	2011.81	-0.738426	-0.739978	-0.0413365	6	0.0350319	13	39.4049	3.05881e-05
2	0	0	0	0	2019.7	-0.541382	-0.543075	-0.0170265	6	0.0348112	13	47.2866	9.24666e-06
2	1	0	1	0	2026.6	-0.368595	-0.370256	0.00607961	6	0.0347793	13	1.8672	-2.25101e-06